timestamps,TP9,AF7,AF8,TP10,Right AUX
1731796501.937,-865.234,-692.871,3.418,-992.188,0.000
1731796501.941,361.328,910.156,39.551,-270.508,0.000
1731796501.945,-765.137,877.441,107.422,-865.234,0.000
1731796501.949,740.234,-811.035,79.102,785.156,0.000
1731796501.953,-773.926,-1000.000,3.906,-811.035,0.000
1731796501.957,-264.648,697.266,22.461,-937.500,0.000
1731796501.960,-850.098,-991.211,78.125,790.527,0.000
1731796501.964,888.184,-693.848,59.082,992.676,0.000
1731796501.968,-696.289,-1000.000,0.488,-706.055,0.000
1731796501.972,-907.227,517.090,-0.977,-1000.000,0.000
1731796501.976,794.922,-858.398,53.223,626.465,0.000
1731796501.980,-881.836,-307.129,72.266,-930.664,0.000
1731796501.984,-488.770,-1000.000,17.578,-517.578,0.000
1731796501.988,-1000.000,4.883,-7.812,-1000.000,0.000
1731796501.992,564.453,-845.703,59.082,149.414,0.000
1731796501.996,-758.789,381.836,95.703,-829.590,0.000
1731796502.000,250.488,-1000.000,36.133,175.293,0.000
1731796502.003,-981.445,-702.637,-27.832,-1000.000,0.000
1731796502.007,245.605,933.105,10.254,-529.785,0.000
1731796502.011,-796.387,841.309,54.199,976.074,0.000
1731796502.015,815.430,-823.242,14.648,898.438,0.000
1731796502.019,-736.816,-1000.000,-34.668,-756.836,0.000
1731796502.023,-620.117,672.852,-0.977,-1000.000,0.000
1731796502.027,-965.332,-976.562,59.082,722.168,0.000
1731796502.031,934.082,-658.203,48.340,-982.910,0.000
1731796502.035,-703.613,-1000.000,-16.113,-696.777,0.000
1731796502.039,-987.305,434.082,-34.668,-1000.000,0.000
1731796502.042,641.113,-830.566,30.762,544.434,0.000
1731796502.046,-865.234,-181.641,51.270,-945.801,0.000
1731796502.050,-312.988,-1000.000,0.000,-213.379,0.000
1731796502.054,-972.656,-231.445,-36.621,-1000.000,0.000
1731796502.058,538.086,-911.133,3.418,59.082,0.000
1731796502.062,-769.531,431.152,49.316,-817.871,0.000
1731796502.066,560.547,-1000.000,14.160,649.902,0.000
1731796502.070,-901.855,-864.258,-37.598,-932.129,0.000
1731796502.074,1.953,754.883,0.488,-699.707,0.000
1731796502.078,-807.129,-994.629,38.574,953.613,0.000
1731796502.082,863.770,-702.637,-4.883,952.148,0.000
1731796502.085,-698.242,-1000.000,-61.523,-708.496,0.000
1731796502.089,-812.500,590.820,-35.156,-1000.000,0.000
1731796502.093,915.039,-791.504,27.344,669.434,0.000
1731796502.097,-967.773,-5.371,32.715,-877.930,0.000
1731796502.101,-603.516,-1000.000,-19.531,-509.766,0.000
1731796502.105,-1000.000,250.977,-55.664,-1000.000,0.000
1731796502.109,587.891,-760.742,-0.977,514.160,0.000
1731796502.113,-768.555,566.406,31.738,-781.250,0.000
1731796502.117,-105.957,-930.664,-15.137,83.496,0.000
1731796502.121,-985.352,-301.758,-55.176,-1000.000,0.000
1731796502.125,464.844,-881.836,-4.883,31.738,0.000
1731796502.128,-777.344,878.418,39.551,-831.543,0.000
1731796502.132,662.109,-730.469,-2.441,783.203,0.000
1731796502.136,-841.309,-884.277,-52.734,-809.570,0.000
1731796502.140,-138.672,829.590,-22.949,-770.508,0.000
1731796502.144,-826.172,-943.359,34.668,936.523,0.000
1731796502.148,875.488,-589.844,13.672,964.844,0.000
1731796502.152,-701.172,-1000.000,-49.316,-708.984,0.000
1731796502.156,-847.168,583.496,-44.922,-999.023,0.000
1731796502.160,848.145,-789.062,23.926,622.070,0.000
1731796502.164,-888.672,-13.184,42.969,-790.039,0.000
1731796502.167,-469.727,-1000.000,-13.672,-245.117,0.000
1731796502.171,-1000.000,253.418,-42.969,-975.586,0.000
1731796502.175,557.129,-790.527,3.418,529.785,0.000
1731796502.179,-746.582,684.082,24.414,-766.602,0.000
1731796502.183,285.156,-869.629,-20.996,593.262,0.000
1731796502.187,-883.301,-695.801,-59.082,-815.430,0.000
1731796502.191,379.395,993.652,1.953,141.602,0.000
1731796502.195,-782.715,874.023,56.641,-779.297,0.000
1731796502.199,791.016,-789.062,22.461,843.750,0.000
1731796502.203,-707.520,-994.629,-31.738,-703.613,0.000
1731796502.207,-252.930,688.477,0.977,-585.449,0.000
1731796502.210,-843.262,-912.109,64.941,978.027,0.000
1731796502.214,891.602,-573.242,31.738,-903.809,0.000
1731796502.218,-700.684,-1000.000,-26.855,-374.023,0.000
1731796502.222,-854.980,541.016,-27.344,-915.039,0.000
1731796502.226,806.152,-784.668,30.762,645.020,0.000
1731796502.230,-834.961,-64.453,43.457,-757.324,0.000
1731796502.234,-312.500,-1000.000,-23.438,367.676,0.000
1731796502.238,-988.281,291.016,-64.941,-765.625,0.000
1731796502.242,540.527,-780.762,-6.348,455.566,0.000
1731796502.246,-750.488,415.527,26.855,-762.695,0.000
1731796502.250,485.352,-1000.000,-23.438,752.930,0.000
1731796502.253,-838.867,-789.551,-54.199,-629.395,0.000
1731796502.257,270.020,862.793,-3.906,113.770,0.000
1731796502.261,-783.203,958.008,50.293,-788.574,0.000
1731796502.265,833.984,-732.422,12.207,887.207,0.000
1731796502.269,-692.383,-1000.000,-51.758,-636.230,0.000
1731796502.273,-502.930,669.922,-23.926,-743.652,0.000
1731796502.277,-929.688,-951.172,41.504,905.762,0.000
1731796502.281,956.543,-597.656,37.109,-880.371,0.000
1731796502.285,-648.438,-1000.000,-15.625,-369.629,0.000
1731796502.289,-942.871,412.598,-31.250,-1000.000,0.000
1731796502.292,699.707,-877.441,22.949,565.918,0.000
1731796502.296,-793.945,-324.707,35.156,-752.930,0.000
1731796502.300,-210.449,-1000.000,-13.184,193.848,0.000
1731796502.304,-967.773,-265.625,-40.039,-964.844,0.000
1731796502.308,533.203,-938.965,17.578,301.270,0.000
1731796502.312,-764.160,281.738,60.547,-777.832,0.000
1731796502.316,562.988,-1000.000,8.301,719.727,0.000
1731796502.320,-882.324,-861.816,-48.340,-835.449,0.000
1731796502.324,59.570,738.770,-12.695,-582.031,0.000
1731796502.328,-794.922,987.793,39.551,-968.750,0.000
1731796502.332,856.445,-741.211,16.602,931.641,0.000
1731796502.335,-695.312,-1000.000,-50.293,-687.012,0.000
1731796502.339,-787.109,625.000,-43.457,-1000.000,0.000
1731796502.343,953.125,-849.121,26.367,708.008,0.000
1731796502.347,970.703,-356.934,19.531,-978.516,0.000
1731796502.351,-687.500,-1000.000,-36.133,-640.625,0.000
1731796502.355,-1000.000,287.598,-41.992,-1000.000,0.000
1731796502.359,617.188,-781.250,10.742,439.941,0.000
1731796502.363,-814.453,336.914,31.250,-910.156,0.000
1731796502.367,-374.023,-1000.000,-20.996,-380.859,0.000
1731796502.371,-1000.000,-365.723,-63.965,-1000.000,0.000
1731796502.375,493.652,-927.734,-4.395,-433.594,0.000
1731796502.378,-770.996,863.770,46.387,998.535,0.000
1731796502.382,491.211,-752.441,3.418,359.863,0.000
1731796502.386,-975.098,-973.145,-51.270,-1000.000,0.000
1731796502.390,-123.047,757.324,-19.531,-921.875,0.000
1731796502.394,-843.750,-977.539,31.738,697.754,0.000
1731796502.398,879.395,-681.152,22.949,925.781,0.000
1731796502.402,-699.707,-1000.000,-19.531,-802.246,0.000
1731796502.406,-863.281,617.676,-25.391,-1000.000,0.000
1731796502.410,891.113,-871.094,29.297,628.906,0.000
1731796502.414,996.094,-366.211,36.621,-1000.000,0.000
1731796502.417,-683.105,-1000.000,-24.902,-650.879,0.000
1731796502.421,-1000.000,141.113,-59.570,-1000.000,0.000
1731796502.425,600.586,-823.730,7.324,281.250,0.000
1731796502.429,-789.062,234.375,47.852,-911.621,0.000
1731796502.433,-223.145,-1000.000,6.348,-343.262,0.000
1731796502.437,-1000.000,-630.859,-37.109,-1000.000,0.000
1731796502.441,444.336,947.754,0.977,-478.516,0.000
1731796502.445,-774.414,893.066,41.504,984.863,0.000
1731796502.449,604.980,-778.809,13.184,485.352,0.000
1731796502.453,-910.645,-1000.000,-39.062,-1000.000,0.000
1731796502.457,-202.637,711.914,-11.230,-935.059,0.000
1731796502.460,-851.074,-998.535,39.551,708.008,0.000
1731796502.464,885.742,-737.305,15.625,938.477,0.000
1731796502.468,-698.242,-1000.000,-38.574,-757.324,0.000
1731796502.472,-882.812,619.629,-38.574,-1000.000,0.000
1731796502.476,855.957,-838.867,20.996,536.133,0.000
1731796502.480,-959.473,-243.652,29.785,979.980,0.000
1731796502.484,-623.535,-1000.000,-35.645,-608.887,0.000
1731796502.488,-1000.000,172.363,-55.176,-1000.000,0.000
1731796502.492,584.473,-807.129,18.066,-185.059,0.000
1731796502.496,-772.949,554.199,45.898,-995.117,0.000
1731796502.500,-0.977,-963.379,-2.930,-169.434,0.000
1731796502.503,-1000.000,-764.160,-50.293,-1000.000,0.000
1731796502.507,318.848,899.902,4.883,-776.367,0.000
1731796502.511,-773.926,972.656,46.387,782.715,0.000
1731796502.515,667.969,-707.520,-4.883,465.820,0.000
1731796502.519,-886.230,-1000.000,-63.965,-1000.000,0.000
1731796502.523,-426.758,696.777,-39.551,-1000.000,0.000
1731796502.527,-912.109,-942.871,22.949,580.078,0.000
1731796502.531,912.109,-613.281,25.879,877.441,0.000
1731796502.535,-698.730,-1000.000,-27.344,-732.910,0.000
1731796502.539,-949.707,499.023,-38.086,-1000.000,0.000
1731796502.542,757.812,-830.078,19.531,-46.875,0.000
1731796502.546,-890.625,-146.484,33.203,887.695,0.000
1731796502.550,-531.250,-1000.000,-29.297,-511.230,0.000
1731796502.554,-1000.000,-166.504,-62.012,-1000.000,0.000
1731796502.558,568.359,-878.906,8.789,-616.699,0.000
1731796502.562,-763.184,311.035,53.711,824.707,0.000
1731796502.566,222.656,-1000.000,5.371,43.457,0.000
1731796502.570,-1000.000,-767.090,-52.734,-1000.000,0.000
1731796502.574,225.586,833.984,-18.066,-833.984,0.000
1731796502.578,-786.133,973.633,40.527,736.328,0.000
1731796502.582,777.344,-723.145,26.367,787.109,0.000
1731796502.585,-788.086,-1000.000,-29.297,-935.059,0.000
1731796502.589,-583.984,662.598,-17.578,-995.117,0.000
1731796502.593,-963.867,-930.664,45.898,668.457,0.000
1731796502.597,952.637,-549.805,49.805,-965.820,0.000
1731796502.601,-670.898,-1000.000,-18.555,-688.477,0.000
1731796502.605,-965.332,297.852,-44.434,-1000.000,0.000
1731796502.609,639.648,-795.410,18.066,540.039,0.000
1731796502.613,-769.531,413.574,38.574,-777.832,0.000
1731796502.617,-51.270,-1000.000,-13.672,63.477,0.000
1731796502.621,-927.734,-480.957,-46.387,-1000.000,0.000
1731796502.625,514.648,-931.152,0.977,209.961,0.000
1731796502.628,-767.090,753.906,38.086,-799.805,0.000
1731796502.632,642.578,-867.188,-4.883,761.719,0.000
1731796502.636,-796.387,-976.562,-58.105,-806.152,0.000
1731796502.640,82.520,727.539,-20.996,-624.512,0.000
1731796502.644,-781.738,998.535,34.668,-983.887,0.000
1731796502.648,851.074,-723.633,13.184,939.453,0.000
1731796502.652,-702.148,-1000.000,-40.039,-701.172,0.000
1731796502.656,-722.168,646.484,-21.973,-989.258,0.000
1731796502.660,941.406,-937.012,54.199,677.734,0.000
1731796502.664,-924.316,-518.066,57.617,-840.820,0.000
1731796502.667,-481.934,-1000.000,-14.160,-425.781,0.000
1731796502.671,-1000.000,161.133,-41.992,-1000.000,0.000
1731796502.675,569.336,-861.816,17.090,531.250,0.000
1731796502.679,-745.605,9.766,35.645,-771.973,0.000
1731796502.683,170.898,-1000.000,-9.766,328.613,0.000
1731796502.687,-894.043,-654.785,-50.293,-1000.000,0.000
1731796502.691,438.965,902.832,-11.230,-24.902,0.000
1731796502.695,-766.602,897.949,31.738,-813.965,0.000
1731796502.699,701.172,-792.969,-0.488,765.137,0.000
1731796502.703,-786.621,-1000.000,-44.922,-822.266,0.000
1731796502.707,-104.980,721.680,-16.113,-813.477,0.000
1731796502.710,-812.012,971.680,36.621,907.227,0.000
1731796502.714,870.117,-754.395,10.254,966.797,0.000
1731796502.718,-697.754,-1000.000,-46.387,-708.496,0.000
1731796502.722,-848.145,597.656,-41.992,-1000.000,0.000
1731796502.726,853.027,-879.395,24.414,652.344,0.000
1731796502.730,-897.461,-390.137,41.992,-904.297,0.000
1731796502.734,-487.305,-1000.000,-16.113,-479.004,0.000
1731796502.738,-1000.000,124.023,-45.410,-1000.000,0.000
1731796502.742,576.172,-823.242,4.395,272.949,0.000
1731796502.746,-760.254,264.648,31.738,-848.633,0.000
1731796502.750,27.344,-1000.000,-12.695,-109.863,0.000
1731796502.753,-1000.000,-575.684,-56.641,-1000.000,0.000
1731796502.757,364.746,978.516,-5.859,-580.566,0.000
1731796502.761,-773.438,840.332,48.828,955.566,0.000
1731796502.765,676.758,-806.152,22.461,601.074,0.000
1731796502.769,-865.234,-1000.000,-36.621,-999.023,0.000
1731796502.773,-354.980,671.387,-18.066,-979.492,0.000
1731796502.777,-886.230,-938.965,47.852,675.781,0.000
1731796502.781,901.855,-630.371,29.785,967.285,0.000
1731796502.785,-699.707,-1000.000,-38.574,-737.305,0.000
1731796502.789,-924.316,567.383,-36.133,-1000.000,0.000
1731796502.792,776.367,-848.633,17.578,532.715,0.000
1731796502.796,-880.371,-246.094,32.227,-966.797,0.000
1731796502.800,-496.094,-1000.000,-4.883,-522.461,0.000
1731796502.804,-1000.000,-69.824,-46.875,-1000.000,0.000
1731796502.808,570.312,-868.652,12.695,-197.266,0.000
1731796502.812,-764.648,233.887,53.711,-958.984,0.000
1731796502.816,187.988,-1000.000,13.184,-9.277,0.000
1731796502.820,-1000.000,-781.250,-29.297,-1000.000,0.000
1731796502.824,210.449,803.223,0.488,-882.324,0.000
1731796502.828,-781.738,-993.164,51.270,708.984,0.000
1731796502.832,740.723,-690.430,25.879,694.336,0.000
1731796502.835,-832.031,-1000.000,-34.668,-971.680,0.000
1731796502.839,-627.441,647.949,-9.766,-1000.000,0.000
1731796502.843,-979.004,-892.578,56.641,566.895,0.000
1731796502.847,936.035,-470.703,54.688,937.500,0.000
1731796502.851,-692.871,-1000.000,-1.465,-632.324,0.000
1731796502.855,-1000.000,324.219,-6.348,-1000.000,0.000
1731796502.859,662.109,-798.828,38.574,-293.457,0.000
1731796502.863,-867.188,151.367,38.086,789.062,0.000
1731796502.867,-512.207,-1000.000,3.418,-485.840,0.000
1731796502.871,-1000.000,-389.648,-20.508,-1000.000,0.000
1731796502.875,552.734,-945.312,41.504,-776.855,0.000
1731796502.878,-775.391,819.824,80.078,638.672,0.000
1731796502.882,238.281,-816.895,32.227,-50.293,0.000
1731796502.886,-1000.000,-952.148,-22.461,-1000.000,0.000
1731796502.890,23.926,770.508,9.277,-892.578,0.000
1731796502.894,-823.242,-996.094,58.105,645.020,0.000
1731796502.898,824.707,-710.938,43.457,814.941,0.000
1731796502.902,-762.695,-1000.000,-14.160,-891.113,0.000
1731796502.906,-812.012,633.789,-9.277,-1000.000,0.000
1731796502.910,933.594,-874.512,59.570,517.578,0.000
1731796502.914,967.285,-393.555,84.473,986.816,0.000
1731796502.917,-704.102,-1000.000,24.414,-625.977,0.000
1731796502.921,-1000.000,225.586,-29.785,-1000.000,0.000
1731796502.925,623.535,-823.730,28.320,75.684,0.000
1731796502.929,-830.566,149.902,50.293,947.266,0.000
1731796502.933,-400.391,-1000.000,7.324,-485.840,0.000
1731796502.937,-1000.000,-687.500,-23.926,-1000.000,0.000
1731796502.941,457.520,939.941,25.879,-657.227,0.000
1731796502.945,-772.949,653.320,45.898,825.195,0.000
1731796502.949,452.637,-998.047,-10.254,121.094,0.000
1731796502.953,-1000.000,-903.809,-38.086,-1000.000,0.000
1731796502.957,-199.707,751.465,-13.184,-991.699,0.000
1731796502.960,-864.746,-987.793,-5.859,539.551,0.000
1731796502.964,875.000,-694.824,-23.438,749.023,0.000
1731796502.968,-719.238,-1000.000,-63.477,-861.328,0.000
1731796502.972,-894.531,600.586,-72.754,-1000.000,0.000
1731796502.976,865.234,-848.633,-5.371,53.223,0.000
1731796502.980,990.234,-381.836,5.371,914.551,0.000
1731796502.984,-705.078,-1000.000,-56.641,-570.312,0.000
1731796502.988,-1000.000,356.934,-83.984,-1000.000,0.000
1731796502.992,606.934,-806.152,-41.992,-127.441,0.000
1731796502.996,-803.711,221.191,-13.184,961.426,0.000
1731796503.000,-231.445,-1000.000,-57.129,-326.660,0.000
1731796503.003,-1000.000,-703.125,-112.793,-1000.000,0.000
1731796503.007,327.637,906.250,-43.945,-677.246,0.000
1731796503.011,-780.762,878.418,39.551,854.004,0.000
1731796503.015,616.699,-806.641,10.254,462.402,0.000
1731796503.019,-940.430,-1000.000,-63.965,-1000.000,0.000
1731796503.023,-455.078,695.312,-39.551,-968.262,0.000
1731796503.027,-929.199,-973.145,21.484,666.504,0.000
1731796503.031,916.016,-663.086,-16.113,871.582,0.000
1731796503.035,-689.941,-1000.000,-50.293,-754.395,0.000
1731796503.039,-993.164,499.512,-55.664,-1000.000,0.000
1731796503.042,743.652,-839.844,1.953,110.352,0.000
1731796503.046,-952.637,-262.695,69.336,909.180,0.000
1731796503.050,-659.668,-1000.000,20.020,-559.570,0.000
1731796503.054,-1000.000,8.789,-11.719,-1000.000,0.000
1731796503.058,602.051,-883.789,39.551,-778.809,0.000
1731796503.062,-800.293,835.449,70.312,531.738,0.000
1731796503.066,-129.395,-759.766,77.148,-335.938,0.000
1731796503.070,-1000.000,-850.586,-6.348,-1000.000,0.000
1731796503.074,201.172,837.891,34.180,-1000.000,0.000
1731796503.078,-791.992,965.820,133.301,-313.477,0.000
1731796503.082,674.316,-587.891,137.207,2.930,0.000
1731796503.085,-908.691,-1000.000,96.680,-1000.000,0.000
1731796503.089,-675.293,653.809,61.523,-1000.000,0.000
1731796503.093,988.281,-923.828,135.254,-969.238,0.000
1731796503.097,947.754,-596.191,126.953,-1000.000,0.000
1731796503.101,-697.266,-1000.000,91.309,-1000.000,0.000
1731796503.105,-1000.000,454.590,80.566,-1000.000,0.000
1731796503.109,665.527,-807.617,118.164,-1000.000,0.000
1731796503.113,-878.906,82.031,254.883,-1000.000,0.000
1731796503.117,-523.438,-1000.000,171.387,-1000.000,0.000
1731796503.121,-1000.000,-381.836,17.578,-1000.000,0.000
1731796503.125,541.016,-937.500,41.016,-1000.000,0.000
1731796503.128,-799.316,723.633,76.172,-1000.000,0.000
1731796503.132,30.762,-898.438,-73.730,-1000.000,0.000
1731796503.136,-1000.000,-932.617,-205.566,-1000.000,0.000
1731796503.140,-150.879,785.156,-177.734,-1000.000,0.000
1731796503.144,-840.820,940.918,-255.859,-1000.000,0.000
1731796503.148,580.566,-776.855,-403.809,-1000.000,0.000
1731796503.152,-982.910,-1000.000,-462.891,-1000.000,0.000
1731796503.156,-877.930,675.293,-461.426,-1000.000,0.000
1731796503.160,803.223,-989.258,-458.496,-1000.000,0.000
1731796503.164,989.746,-632.324,-443.359,-1000.000,0.000
1731796503.167,-716.797,-1000.000,-473.633,-1000.000,0.000
1731796503.171,-1000.000,222.656,-476.562,-1000.000,0.000
1731796503.175,664.062,-817.871,-302.734,-1000.000,0.000
1731796503.179,-934.082,231.445,-293.457,-1000.000,0.000
1731796503.183,-576.172,-1000.000,-405.762,-1000.000,0.000
1731796503.187,-1000.000,-517.090,-438.477,-1000.000,0.000
1731796503.191,367.188,-969.727,-370.605,-1000.000,0.000
1731796503.195,-797.363,687.500,-274.414,-1000.000,0.000
1731796503.199,112.305,-928.711,-199.219,-1000.000,0.000
1731796503.203,-1000.000,-928.223,-184.082,-1000.000,0.000
1731796503.207,-386.230,766.602,-140.625,-1000.000,0.000
1731796503.210,-924.805,967.285,-45.410,-1000.000,0.000
1731796503.214,750.000,-762.695,-76.172,-1000.000,0.000
1731796503.218,-887.207,-1000.000,-160.645,-1000.000,0.000
1731796503.222,-957.520,608.887,-139.160,-1000.000,0.000
1731796503.226,748.047,-824.219,-51.270,-1000.000,0.000
1731796503.230,-992.676,-153.809,64.453,-1000.000,0.000
1731796503.234,-708.008,-1000.000,74.707,-1000.000,0.000
1731796503.238,-1000.000,124.512,44.922,-1000.000,0.000
1731796503.242,664.062,-806.641,95.215,-1000.000,0.000
1731796503.246,-955.078,305.176,176.758,-1000.000,0.000
1731796503.250,-544.434,-1000.000,44.922,-942.871,0.000
1731796503.253,-1000.000,-602.051,-98.145,-1000.000,0.000
1731796503.257,80.078,956.543,-29.297,-961.426,0.000
1731796503.261,-824.219,934.082,28.809,616.699,0.000
1731796503.265,410.156,-739.746,-25.879,295.898,0.000
1731796503.269,-1000.000,-968.750,-119.141,-1000.000,0.000
1731796503.273,-755.371,757.812,-113.770,-928.223,0.000
1731796503.277,878.906,-972.168,-151.855,631.348,0.000
1731796503.281,978.516,-623.535,-154.785,979.004,0.000
1731796503.285,-701.660,-1000.000,-83.984,-746.094,0.000
1731796503.289,-1000.000,487.305,-62.012,-1000.000,0.000
1731796503.292,652.832,-884.766,-20.020,514.648,0.000
1731796503.296,-902.344,-365.234,-14.160,-854.004,0.000
1731796503.300,-548.340,-1000.000,-53.223,-367.676,0.000
1731796503.304,-1000.000,-172.363,-25.391,-1000.000,0.000
1731796503.308,436.523,-905.273,15.625,131.348,0.000
1731796503.312,-782.227,349.121,53.223,-813.477,0.000
1731796503.316,221.680,-1000.000,77.637,612.305,0.000
1731796503.320,-1000.000,-873.535,19.531,-962.891,0.000
1731796503.324,-212.402,770.508,61.035,-600.098,0.000
1731796503.328,-872.559,856.934,79.590,-994.629,0.000
1731796503.332,805.176,-840.820,122.070,942.871,0.000
1731796503.335,-821.289,-1000.000,186.035,-726.074,0.000
1731796503.339,-872.070,674.805,191.406,-917.969,0.000
1731796503.343,867.188,-985.840,249.023,790.527,0.000
1731796503.347,983.398,-673.828,309.082,-912.109,0.000
1731796503.351,-709.473,-1000.000,305.664,-554.199,0.000
1731796503.355,-1000.000,395.020,298.340,-1000.000,0.000
1731796503.359,620.117,-801.758,319.824,579.590,0.000
1731796503.363,-823.242,264.648,378.418,-771.484,0.000
1731796503.367,-377.441,-1000.000,333.008,79.590,0.000
1731796503.371,-1000.000,-417.969,305.664,-1000.000,0.000
1731796503.375,446.289,-919.922,464.355,261.230,0.000
1731796503.378,-767.578,655.273,450.684,-783.691,0.000
1731796503.382,527.832,-944.824,376.465,732.910,0.000
1731796503.386,-941.895,-896.973,396.973,-825.684,0.000
1731796503.390,-60.059,785.645,430.176,-502.441,0.000
1731796503.394,-823.242,994.141,444.824,-933.105,0.000
1731796503.398,871.582,-708.984,406.250,918.945,0.000
1731796503.402,-697.754,-1000.000,340.820,-691.406,0.000
1731796503.406,-838.867,651.367,350.098,-993.164,0.000
1731796503.410,894.531,-954.590,456.055,683.105,0.000
1731796503.414,-966.797,-574.707,457.031,-849.121,0.000
1731796503.417,-613.281,-1000.000,458.008,-460.449,0.000
1731796503.421,-1000.000,218.750,467.773,-1000.000,0.000
1731796503.425,588.379,-819.336,503.418,564.453,0.000
1731796503.429,-774.414,231.934,549.316,-769.531,0.000
1731796503.433,-77.148,-1000.000,521.484,318.359,0.000
1731796503.437,-1000.000,-574.219,458.984,-999.023,0.000
1731796503.441,386.230,996.582,397.461,91.309,0.000
1731796503.445,-770.996,773.438,445.801,-803.711,0.000
1731796503.449,657.715,-869.629,485.352,818.359,0.000
1731796503.453,-861.328,-986.816,405.273,-751.465,0.000
1731796503.457,-202.148,727.539,418.945,-674.316,0.000
1731796503.460,-843.750,952.148,501.953,-996.582,0.000
1731796503.464,883.789,-781.738,434.570,944.336,0.000
1731796503.468,-699.707,-1000.000,328.613,-699.707,0.000
1731796503.472,-877.930,636.230,364.258,-1000.000,0.000
1731796503.476,825.195,-895.996,420.410,639.160,0.000
1731796503.480,-891.113,-446.289,414.062,-817.383,0.000
1731796503.484,-491.211,-1000.000,350.586,-341.797,0.000
1731796503.488,-1000.000,204.102,270.508,-1000.000,0.000
1731796503.492,562.012,-816.406,316.406,482.422,0.000
1731796503.496,-746.582,198.730,363.281,-762.207,0.000
1731796503.500,191.895,-1000.000,324.707,336.426,0.000
1731796503.503,-908.203,-515.625,279.297,-1000.000,0.000
1731796503.507,409.668,-976.562,318.359,-1.953,0.000
1731796503.511,-777.344,419.434,337.891,-825.684,0.000
1731796503.515,760.254,-1000.000,270.020,831.055,0.000
1731796503.519,-716.797,-942.383,221.680,-738.770,0.000
1731796503.523,-109.863,667.480,243.164,-839.355,0.000
1731796503.527,-806.641,-989.746,280.762,896.484,0.000
1731796503.531,871.094,-704.102,254.883,981.934,0.000
1731796503.535,-711.914,-1000.000,185.059,-696.289,0.000
1731796503.539,-771.973,543.945,148.926,-1000.000,0.000
1731796503.542,869.629,-877.930,188.477,624.023,0.000
1731796503.546,-845.215,-358.887,213.379,-836.914,0.000
1731796503.550,-292.480,-1000.000,151.367,-338.867,0.000
1731796503.554,-962.891,-24.414,104.004,-1000.000,0.000
1731796503.558,565.430,-889.160,153.809,337.402,0.000
1731796503.562,-743.652,28.320,184.082,-785.156,0.000
1731796503.566,489.258,-1000.000,114.258,368.164,0.000
1731796503.570,-709.961,-719.238,57.129,-1000.000,0.000
1731796503.574,433.594,850.098,85.938,-495.605,0.000
1731796503.578,-754.883,809.570,115.723,-983.398,0.000
1731796503.582,759.766,-849.609,96.680,910.645,0.000
1731796503.585,-582.031,-1000.000,22.461,-721.680,0.000
1731796503.589,176.270,661.133,0.488,-1000.000,0.000
1731796503.593,-791.504,-953.613,55.176,733.398,0.000
1731796503.597,920.410,-604.980,66.406,-993.652,0.000
1731796503.601,-543.945,-1000.000,13.184,-645.508,0.000
1731796503.605,-358.398,374.023,-20.508,-1000.000,0.000
1731796503.609,-988.770,-825.684,24.902,437.012,0.000
1731796503.613,-867.676,-40.527,50.293,-964.844,0.000
1731796503.617,56.641,-1000.000,8.301,-473.145,0.000
1731796503.621,-800.781,-340.332,-30.273,-1000.000,0.000
1731796503.625,625.977,-932.617,9.277,-620.117,0.000
1731796503.628,-762.207,718.750,42.969,847.168,0.000
1731796503.632,604.980,-915.527,16.113,98.145,0.000
1731796503.636,-601.562,-869.629,-38.086,-1000.000,0.000
1731796503.640,408.691,832.520,-16.602,-875.488,0.000
1731796503.644,-751.953,984.375,38.086,701.660,0.000
1731796503.648,770.508,-714.355,8.789,813.477,0.000
1731796503.652,-608.398,-1000.000,-44.434,-882.812,0.000
1731796503.656,119.141,654.785,-34.180,-1000.000,0.000
1731796503.660,-813.965,-910.156,14.160,539.062,0.000
1731796503.664,961.426,-539.062,28.320,993.652,0.000
1731796503.667,-509.277,-1000.000,-13.184,-651.367,0.000
1731796503.671,-676.270,430.664,-45.898,-1000.000,0.000
1731796503.675,894.531,-828.125,-3.418,212.402,0.000
1731796503.679,-825.195,43.945,24.902,-923.828,0.000
1731796503.683,34.180,-1000.000,-7.324,-360.352,0.000
1731796503.687,-911.133,-588.867,-46.387,-1000.000,0.000
1731796503.691,499.512,977.051,-2.930,-311.035,0.000
1731796503.695,-744.141,530.273,38.086,-944.824,0.000
1731796503.699,600.098,-1000.000,16.602,490.723,0.000
1731796503.703,-708.984,-905.762,-24.902,-1000.000,0.000
1731796503.707,292.480,729.004,-22.949,-923.828,0.000
1731796503.710,-772.461,-992.188,9.277,729.980,0.000
1731796503.714,824.219,-715.820,0.000,940.918,0.000
1731796503.718,-687.500,-1000.000,-47.852,-769.043,0.000
1731796503.722,-395.996,654.785,-41.016,-1000.000,0.000
1731796503.726,-916.992,-912.109,3.906,598.145,0.000
1731796503.730,997.070,-548.828,-1.465,-973.145,0.000
1731796503.734,-546.875,-1000.000,-37.109,-643.555,0.000
1731796503.738,-932.617,444.824,-60.059,-1000.000,0.000
1731796503.742,686.523,-835.449,-35.645,365.234,0.000
1731796503.746,-770.020,28.320,-22.949,-851.074,0.000
1731796503.750,17.090,-1000.000,-61.035,-146.973,0.000
1731796503.753,-908.691,-579.590,-101.074,-1000.000,0.000
1731796503.757,506.836,951.660,-61.523,-606.934,0.000
1731796503.761,-767.090,862.305,-26.367,937.012,0.000
1731796503.765,646.484,-798.340,-65.430,618.652,0.000
1731796503.769,-819.336,-1000.000,-103.027,-999.512,0.000
1731796503.773,-6.836,682.129,-89.355,-961.426,0.000
1731796503.777,-799.316,913.574,-61.523,689.453,0.000
1731796503.781,861.328,-730.957,-70.801,993.652,0.000
1731796503.785,-694.336,-1000.000,-112.305,-680.664,0.000
1731796503.789,-831.055,548.828,-126.953,-1000.000,0.000
1731796503.792,896.973,-887.695,-94.238,487.305,0.000
1731796503.796,-956.055,-413.086,-82.031,967.773,0.000
1731796503.800,-592.285,-1000.000,-114.746,-586.914,0.000
1731796503.804,-1000.000,49.805,-159.668,-1000.000,0.000
1731796503.808,585.938,-847.656,-139.648,-534.180,0.000
1731796503.812,-771.973,229.492,-107.422,812.988,0.000
1731796503.816,-42.480,-1000.000,-130.859,-211.426,0.000
1731796503.820,-1000.000,-595.703,-168.945,-1000.000,0.000
1731796503.824,361.328,979.004,-142.090,-815.430,0.000
1731796503.828,-788.086,702.637,-103.516,723.145,0.000
1731796503.832,716.309,-898.926,-118.652,723.145,0.000
1731796503.835,-834.473,-974.609,-169.922,-955.566,0.000
1731796503.839,-411.133,686.035,-163.086,-1000.000,0.000
1731796503.843,-899.902,-960.938,-117.188,594.238,0.000
1731796503.847,907.715,-641.113,-120.605,977.051,0.000
1731796503.851,-696.289,-1000.000,-156.738,-700.195,0.000
1731796503.855,-951.660,453.125,-168.457,-1000.000,0.000
1731796503.859,750.000,-804.688,-138.184,403.320,0.000
1731796503.863,-879.883,74.707,-121.094,-977.539,0.000
1731796503.867,-511.230,-1000.000,-151.855,-515.625,0.000
1731796503.871,-1000.000,-230.469,-176.270,-1000.000,0.000
1731796503.875,564.941,-888.184,-135.254,-379.395,0.000
1731796503.878,-765.625,731.934,-106.934,-993.652,0.000
1731796503.882,304.199,-867.188,-124.512,266.113,0.000
1731796503.886,-995.117,-931.641,-171.875,-1000.000,0.000
1731796503.890,155.762,800.293,-154.785,-882.324,0.000
1731796503.894,-785.156,932.617,-110.840,746.094,0.000
1731796503.898,775.879,-785.156,-127.441,817.383,0.000
1731796503.902,-796.875,-1000.000,-166.504,-895.996,0.000
1731796503.906,-726.074,664.551,-161.621,-1000.000,0.000
1731796503.910,979.980,-944.824,-115.723,622.070,0.000
1731796503.914,952.148,-571.777,-113.281,995.605,0.000
1731796503.917,-699.707,-1000.000,-148.438,-684.570,0.000
1731796503.921,-1000.000,325.195,-154.297,-1000.000,0.000
1731796503.925,643.066,-833.008,-102.539,431.641,0.000
1731796503.929,-841.797,-41.504,-86.426,-945.312,0.000
1731796503.933,-452.637,-1000.000,-126.465,-465.820,0.000
1731796503.937,-1000.000,-517.578,-167.480,-1000.000,0.000
1731796503.941,520.996,998.047,-138.672,-375.488,0.000
1731796503.945,-772.461,718.262,-95.703,-974.121,0.000
1731796503.949,492.188,-922.852,-108.398,472.656,0.000
1731796503.953,-959.473,-955.566,-144.531,-1000.000,0.000
1731796503.957,-36.621,749.512,-132.324,-827.148,0.000
1731796503.960,-813.477,932.617,-95.703,838.379,0.000
1731796503.964,840.820,-789.551,-105.957,852.051,0.000
1731796503.968,-734.375,-1000.000,-141.602,-858.398,0.000
1731796503.972,-833.984,674.805,-132.812,-1000.000,0.000
1731796503.976,919.922,-975.586,-83.984,686.523,0.000
1731796503.980,971.680,-626.465,-74.707,980.469,0.000
1731796503.984,-705.566,-1000.000,-119.141,-641.113,0.000
1731796503.988,-1000.000,305.664,-134.277,-1000.000,0.000
1731796503.992,620.605,-808.105,-86.426,180.664,0.000
1731796503.996,-824.707,66.895,-61.523,-989.746,0.000
1731796504.000,-375.977,-1000.000,-92.285,-440.918,0.000
1731796504.003,-1000.000,-231.934,-130.371,-1000.000,0.000
1731796504.007,435.547,-890.625,-96.191,-544.434,0.000
1731796504.011,-770.996,286.621,-57.129,928.223,0.000
1731796504.015,517.578,-1000.000,-78.613,305.664,0.000
1731796504.019,-974.609,-932.617,-123.535,-1000.000,0.000
1731796504.023,-192.871,691.406,-109.863,-890.137,0.000
1731796504.027,-859.863,902.344,-67.383,711.914,0.000
1731796504.031,888.672,-806.641,-78.613,925.293,0.000
1731796504.035,-699.219,-1000.000,-123.535,-801.270,0.000
1731796504.039,-881.348,559.570,-125.000,-1000.000,0.000
1731796504.042,851.074,-979.492,-69.336,622.559,0.000
1731796504.046,-946.777,-547.852,-51.758,-976.074,0.000
1731796504.050,-602.051,-1000.000,-94.238,-627.930,0.000
1731796504.054,-1000.000,-101.562,-126.953,-1000.000,0.000
1731796504.058,582.031,-976.074,-84.961,295.410,0.000
1731796504.062,-769.043,-220.703,-61.523,-852.539,0.000
1731796504.066,18.066,-1000.000,-84.473,-110.352,0.000
1731796504.070,-1000.000,-766.602,-118.164,-1000.000,0.000
1731796504.074,331.543,787.598,-96.680,-617.676,0.000
1731796504.078,-772.461,520.996,-61.035,936.035,0.000
1731796504.082,664.551,-1000.000,-80.078,597.168,0.000
1731796504.085,-887.207,-955.566,-115.234,-1000.000,0.000
1731796504.089,-419.922,650.879,-103.027,-970.215,0.000
1731796504.093,-910.156,-981.445,-62.988,678.223,0.000
1731796504.097,911.621,-673.340,-60.547,980.957,0.000
1731796504.101,-700.195,-1000.000,-85.449,-735.352,0.000
1731796504.105,-942.871,443.359,-87.891,-1000.000,0.000
1731796504.109,750.488,-864.258,-51.270,563.477,0.000
1731796504.113,-867.676,-145.020,-34.180,-920.898,0.000
1731796504.117,-478.516,-1000.000,-63.965,-488.281,0.000
1731796504.121,-1000.000,-420.898,-85.938,-1000.000,0.000
1731796504.125,566.406,993.652,-48.828,83.496,0.000
1731796504.128,-762.695,63.965,-25.879,-854.004,0.000
1731796504.132,243.164,-1000.000,-55.664,122.070,0.000
1731796504.136,-1000.000,-787.598,-97.656,-1000.000,0.000
1731796504.140,196.777,791.016,-75.684,-756.836,0.000
1731796504.144,-785.156,882.812,-31.250,854.980,0.000
1731796504.148,770.020,-843.750,-54.199,806.152,0.000
1731796504.152,-800.293,-1000.000,-91.309,-896.484,0.000
1731796504.156,-643.555,676.758,-83.984,-998.047,0.000
1731796504.160,-981.445,-988.770,-44.434,690.430,0.000
1731796504.164,938.477,-614.746,-27.344,-995.117,0.000
1731796504.167,-698.242,-1000.000,-61.035,-685.059,0.000
1731796504.171,-1000.000,217.773,-82.520,-1000.000,0.000
1731796504.175,649.902,-881.836,-41.992,493.164,0.000
1731796504.179,-824.707,-171.875,-20.508,-899.902,0.000
1731796504.183,-403.320,-1000.000,-55.664,-411.621,0.000
1731796504.187,-1000.000,-523.438,-95.215,-1000.000,0.000
1731796504.191,529.785,986.816,-62.988,-118.652,0.000
1731796504.195,-768.555,585.449,-27.832,-881.348,0.000
1731796504.199,474.121,-1000.000,-47.363,436.523,0.000
1731796504.203,-958.984,-917.969,-88.379,-1000.000,0.000
1731796504.207,4.883,773.926,-75.684,-756.836,0.000
1731796504.210,-813.965,849.121,-29.297,880.371,0.000
1731796504.214,858.887,-865.234,-30.273,920.898,0.000
1731796504.218,-707.520,-1000.000,-69.824,-769.043,0.000
1731796504.222,-818.359,643.066,-71.777,-1000.000,0.000
1731796504.226,937.012,-958.008,-27.344,691.406,0.000
1731796504.230,968.262,-620.605,-21.973,999.512,0.000
1731796504.234,-704.102,-1000.000,-56.641,-657.227,0.000
1731796504.238,-1000.000,423.828,-70.312,-1000.000,0.000
1731796504.242,614.258,-870.117,-30.762,350.098,0.000
1731796504.246,-810.547,-255.859,-3.418,-909.668,0.000
1731796504.250,-343.750,-1000.000,-40.039,-351.562,0.000
1731796504.253,-1000.000,-277.344,-76.660,-1000.000,0.000
1731796504.257,455.566,-930.176,-39.062,-512.695,0.000
1731796504.261,-772.461,539.062,-4.883,947.754,0.000
1731796504.265,473.633,-980.957,-32.227,233.398,0.000
1731796504.269,-1000.000,-950.684,-71.777,-1000.000,0.000
1731796504.273,-233.887,689.453,-61.035,-942.383,0.000
1731796504.277,-868.652,-972.656,-23.438,669.434,0.000
1731796504.281,869.141,-681.641,-16.113,786.133,0.000
1731796504.285,-729.492,-1000.000,-59.082,-840.820,0.000
1731796504.289,-904.785,595.703,-64.941,-1000.000,0.000
1731796504.292,853.027,-897.949,-13.672,166.016,0.000
1731796504.296,991.699,-423.340,4.883,918.457,0.000
1731796504.300,-706.543,-1000.000,-26.855,-567.871,0.000
1731796504.304,-1000.000,29.785,-50.781,-1000.000,0.000
1731796504.308,617.188,-859.375,-20.508,-669.922,0.000
1731796504.312,-819.824,204.102,-1.465,591.797,0.000
1731796504.316,-327.637,-1000.000,-23.438,-354.004,0.000
1731796504.320,-1000.000,-674.316,-54.688,-1000.000,0.000
1731796504.324,361.328,894.043,-32.715,-847.168,0.000
1731796504.328,-783.691,948.730,6.836,659.180,0.000
1731796504.332,600.098,-728.516,-2.930,368.652,0.000
1731796504.335,-948.730,-1000.000,-51.758,-1000.000,0.000
1731796504.339,-416.504,659.180,-48.828,-1000.000,0.000
1731796504.343,-918.945,-923.340,-7.324,531.738,0.000
1731796504.347,913.574,-565.430,4.395,904.297,0.000
1731796504.351,-695.312,-1000.000,-36.133,-707.031,0.000
1731796504.355,-962.402,442.383,-53.711,-1000.000,0.000
1731796504.359,772.949,-822.266,-2.930,-49.805,0.000
1731796504.363,-943.359,-126.465,19.043,866.211,0.000
1731796504.367,-633.301,-1000.000,-11.719,-530.273,0.000
1731796504.371,-1000.000,-133.301,-29.785,-1000.000,0.000
1731796504.375,586.914,-866.211,19.531,-599.121,0.000
1731796504.378,-777.832,560.547,48.828,775.879,0.000
1731796504.382,-2.930,-984.375,13.184,-163.574,0.000
1731796504.386,-1000.000,-836.426,-15.137,-1000.000,0.000
1731796504.390,273.926,837.891,14.160,-818.359,0.000
1731796504.394,-791.992,971.191,54.199,725.098,0.000
1731796504.398,734.375,-726.562,44.922,731.934,0.000
1731796504.402,-836.914,-1000.000,-0.488,-968.750,0.000
1731796504.406,-582.520,675.293,0.977,-1000.000,0.000
1731796504.410,-961.914,-963.867,44.922,649.902,0.000
1731796504.414,932.129,-612.793,55.664,997.559,0.000
1731796504.417,-700.684,-1000.000,12.207,-694.336,0.000
1731796504.421,-981.445,416.504,-0.488,-1000.000,0.000
1731796504.425,694.824,-925.781,50.293,481.445,0.000
1731796504.429,-847.168,-398.438,69.336,-938.965,0.000
1731796504.433,-457.031,-1000.000,28.809,-464.355,0.000
1731796504.437,-1000.000,-477.539,-3.906,-1000.000,0.000
1731796504.441,567.383,983.398,40.039,-232.422,0.000
1731796504.445,-767.090,704.590,80.078,-967.285,0.000
1731796504.449,247.070,-962.402,47.363,-11.230,0.000
1731796504.453,-1000.000,-844.238,-8.301,-1000.000,0.000
1731796504.457,137.207,843.262,12.695,-886.230,0.000
1731796504.460,-797.852,968.262,69.336,687.988,0.000
1731796504.464,800.293,-729.004,63.965,815.430,0.000
1731796504.468,-770.996,-1000.000,19.043,-915.527,0.000
1731796504.472,-767.090,662.109,18.555,-1000.000,0.000
1731796504.476,959.961,-929.688,75.684,654.297,0.000
1731796504.480,958.496,-570.801,82.520,992.188,0.000
1731796504.484,-701.172,-1000.000,32.715,-659.668,0.000
1731796504.488,-1000.000,446.289,26.367,-1000.000,0.000
1731796504.492,619.629,-880.859,70.312,311.035,0.000
1731796504.496,-822.266,-245.605,91.797,-950.195,0.000
1731796504.500,-372.559,-1000.000,61.035,-414.062,0.000
1731796504.503,-1000.000,-580.566,16.602,-1000.000,0.000
1731796504.507,447.754,947.754,41.504,-667.480,0.000
1731796504.511,-769.531,672.852,81.543,826.660,0.000
1731796504.515,394.531,-965.332,69.336,166.992,0.000
1731796504.519,-1000.000,-954.590,26.855,-1000.000,0.000
1731796504.523,-190.918,712.402,35.156,-910.156,0.000
1731796504.527,-864.746,997.070,86.914,682.129,0.000
1731796504.531,860.352,-722.168,83.496,802.734,0.000
1731796504.535,-734.375,-1000.000,34.668,-846.191,0.000
1731796504.539,-909.180,617.188,34.668,-1000.000,0.000
1731796504.542,848.633,-916.992,85.449,287.598,0.000
1731796504.546,989.258,-500.488,92.285,935.059,0.000
1731796504.550,-710.938,-1000.000,51.270,-585.938,0.000
1731796504.554,-1000.000,230.469,34.180,-1000.000,0.000
1731796504.558,625.000,-840.332,76.172,-544.434,0.000
1731796504.562,-836.426,-19.043,104.492,708.496,0.000
1731796504.566,-365.234,-1000.000,69.824,-443.359,0.000
1731796504.570,-1000.000,-645.020,50.293,-1000.000,0.000
1731796504.574,332.520,907.715,89.355,-910.156,0.000
1731796504.578,-777.832,721.191,98.633,-1000.000,0.000
1731796504.582,590.332,-889.648,79.102,-1000.000,0.000
1731796504.585,-947.266,-1000.000,25.879,-1000.000,0.000
1731796504.589,-307.617,681.152,29.785,-1000.000,0.000
1731796504.593,-884.277,952.637,83.008,-1000.000,0.000
1731796504.597,901.855,-754.395,77.637,-1000.000,0.000
1731796504.601,-706.543,-1000.000,16.113,-1000.000,0.000
1731796504.605,-883.301,512.695,24.414,-1000.000,0.000
1731796504.609,838.867,-863.770,96.680,-1000.000,0.000
1731796504.613,-926.758,-288.574,91.797,-1000.000,0.000
1731796504.617,-567.871,-1000.000,54.199,-1000.000,0.000
1731796504.621,-1000.000,-141.602,52.734,-1000.000,0.000
1731796504.625,579.102,-895.020,93.262,-1000.000,0.000
1731796504.628,-765.625,501.465,123.535,-1000.000,0.000
1731796504.632,41.016,-1000.000,88.867,-1000.000,0.000
1731796504.636,-1000.000,-818.359,39.551,-1000.000,0.000
1731796504.640,332.031,857.910,57.129,-1000.000,0.000
1731796504.644,-780.273,907.715,84.473,-1000.000,0.000
1731796504.648,713.867,-790.039,72.266,-1000.000,0.000
1731796504.652,-834.961,-1000.000,51.270,-1000.000,0.000
1731796504.656,-399.414,681.641,44.922,-1000.000,0.000
1731796504.660,-895.996,-987.305,77.637,-1000.000,0.000
1731796504.664,907.227,-660.156,77.637,-1000.000,0.000
1731796504.667,-701.172,-1000.000,34.180,-1000.000,0.000
1731796504.671,-930.664,401.367,13.672,-1000.000,0.000
1731796504.675,762.695,-861.328,54.199,-1000.000,0.000
1731796504.679,-867.188,-199.707,70.801,-1000.000,0.000
1731796504.683,-471.680,-1000.000,18.066,-1000.000,0.000
1731796504.687,-1000.000,-441.406,-16.602,-1000.000,0.000
1731796504.691,560.059,-989.746,38.574,-1000.000,0.000
1731796504.695,-757.324,752.930,74.707,-1000.000,0.000
1731796504.699,326.660,-918.457,28.809,-1000.000,0.000
1731796504.703,-947.266,-864.258,-30.273,-1000.000,0.000
1731796504.707,237.793,864.258,3.418,-1000.000,0.000
1731796504.710,-785.156,894.043,46.387,-1000.000,0.000
1731796504.714,808.105,-805.664,21.484,-1000.000,0.000
1731796504.718,-736.328,-1000.000,-21.484,-921.875,0.000
1731796504.722,-515.137,657.227,-23.926,-1000.000,0.000
1731796504.726,-922.852,-928.223,11.719,-361.816,0.000
1731796504.730,916.992,-545.410,22.461,648.926,0.000
1731796504.734,-692.383,-1000.000,-8.301,-714.844,0.000
1731796504.738,-991.699,339.844,-31.250,-1000.000,0.000
1731796504.742,662.598,-827.637,27.832,-919.922,0.000
1731796504.746,-813.965,-4.395,46.875,-1000.000,0.000
1731796504.750,-374.023,-1000.000,3.418,-972.168,0.000
1731796504.753,-1000.000,-448.730,-32.715,-1000.000,0.000
1731796504.757,552.246,986.328,2.930,-1000.000,0.000
1731796504.761,-763.184,936.523,38.086,109.375,0.000
1731796504.765,454.590,-724.609,17.090,-138.184,0.000
1731796504.769,-946.289,-936.035,-5.859,-1000.000,0.000
1731796504.773,98.633,823.730,-0.977,-964.844,0.000
1731796504.777,-797.852,960.938,22.461,-894.531,0.000
1731796504.781,851.074,-744.629,22.949,-939.453,0.000
1731796504.785,-703.125,-1000.000,-11.719,-938.965,0.000
1731796504.789,-770.996,591.797,-22.949,-1000.000,0.000
1731796504.792,959.961,-839.844,41.992,-642.578,0.000
1731796504.796,975.586,-257.812,48.340,605.469,0.000
1731796504.800,-676.270,-1000.000,5.371,-457.031,0.000
1731796504.804,-1000.000,72.754,9.277,-1000.000,0.000
1731796504.808,605.957,-822.754,28.320,-747.559,0.000
1731796504.812,-797.363,349.609,47.363,554.688,0.000
1731796504.816,-259.277,-1000.000,20.508,-340.332,0.000
1731796504.820,-1000.000,-736.328,-28.320,-1000.000,0.000
1731796504.824,425.781,918.945,-3.418,-911.133,0.000
1731796504.828,-771.973,630.859,30.762,-1000.000,0.000
1731796504.832,587.891,-966.797,11.719,-1000.000,0.000
1731796504.835,-926.270,-967.773,-28.320,-1000.000,0.000
1731796504.839,-201.660,684.570,-14.648,-1000.000,0.000
1731796504.843,-852.539,994.629,13.672,-1000.000,0.000
1731796504.847,886.719,-721.191,12.695,-1000.000,0.000
1731796504.851,-701.172,-1000.000,-18.066,-928.223,0.000
1731796504.855,-873.047,507.324,-36.133,-1000.000,0.000
1731796504.859,844.727,-804.199,2.441,-317.871,0.000
1731796504.863,-920.410,84.961,26.855,852.539,0.000
1731796504.867,-549.316,-1000.000,-1.953,-442.383,0.000
1731796504.871,-1000.000,-148.438,-33.203,-1000.000,0.000
1731796504.875,583.984,-850.098,-7.324,-788.574,0.000
1731796504.878,-770.508,671.875,30.762,584.473,0.000
1731796504.882,-17.578,-931.641,-3.418,-166.016,0.000
1731796504.886,-1000.000,-778.320,-43.945,-1000.000,0.000
1731796504.890,330.566,904.785,-20.508,-979.492,0.000
1731796504.894,-780.273,964.355,12.695,453.613,0.000
1731796504.898,687.012,-707.520,6.836,617.188,0.000
1731796504.902,-871.094,-1000.000,-23.926,-1000.000,0.000
1731796504.906,-452.148,681.152,-4.883,-994.141,0.000
1731796504.910,-917.480,-974.609,31.738,642.578,0.000
1731796504.914,912.109,-654.785,47.852,955.566,0.000
1731796504.917,-689.453,-1000.000,-45.898,-653.320,0.000
1731796504.921,-990.234,439.941,-93.750,-1000.000,0.000
1731796504.925,715.820,-844.727,33.691,49.316,0.000
1731796504.929,-892.578,-179.199,38.574,922.852,0.000
1731796504.933,-554.688,-1000.000,-13.184,-503.906,0.000
1731796504.937,-1000.000,-260.254,21.484,-1000.000,0.000
1731796504.941,592.285,-910.645,62.500,-739.746,0.000
1731796504.945,-793.457,538.574,74.707,627.441,0.000
1731796504.949,0.000,-1000.000,57.617,-270.020,0.000
1731796504.953,-1000.000,-866.699,-4.395,-1000.000,0.000
1731796504.957,72.754,827.637,5.371,-914.062,0.000
1731796504.960,-811.523,829.102,53.711,-1000.000,0.000
1731796504.964,725.098,-861.816,37.109,-1000.000,0.000
1731796504.968,-875.488,-1000.000,-0.977,-1000.000,0.000
1731796504.972,-750.488,662.598,-17.578,-1000.000,0.000
1731796504.976,952.148,-954.590,9.277,-1000.000,0.000
1731796504.980,959.961,-633.301,34.180,-1000.000,0.000
1731796504.984,-702.637,-1000.000,-19.531,-939.453,0.000
1731796504.988,-1000.000,408.203,-58.594,-1000.000,0.000
1731796504.992,645.996,-819.336,-9.277,-924.805,0.000
1731796504.996,-846.191,724.121,-2.930,330.566,0.000
1731796505.000,-469.238,-775.391,-39.551,-396.973,0.000
1731796505.003,-1000.000,-251.465,-60.547,-1000.000,0.000
1731796505.007,546.387,-857.910,-36.133,-990.723,0.000
1731796505.011,-769.531,866.211,-16.113,27.344,0.000
1731796505.015,335.938,-698.242,-47.852,-199.707,0.000
1731796505.019,-1000.000,-989.746,-92.773,-1000.000,0.000
1731796505.023,49.805,732.910,-72.266,-1000.000,0.000
1731796505.027,-813.477,-938.477,-42.969,-389.160,0.000
1731796505.031,835.938,-613.281,-61.523,249.023,0.000
1731796505.035,-737.793,-1000.000,-92.285,-919.434,0.000
1731796505.039,-808.594,621.582,-93.262,-1000.000,0.000
1731796505.043,935.059,-891.602,-49.805,-937.012,0.000
1731796505.046,978.516,-492.188,-30.762,-1000.000,0.000
1731796505.050,-691.406,-1000.000,-81.055,-927.246,0.000
1731796505.054,-1000.000,354.004,-105.957,-1000.000,0.000
1731796505.058,602.051,-830.078,-48.340,-602.051,0.000
1731796505.062,-778.809,4.883,-9.766,856.934,0.000
1731796505.066,-164.551,-1000.000,-41.992,-128.418,0.000
1731796505.070,-1000.000,-652.344,-78.613,-1000.000,0.000
1731796505.074,471.191,920.898,-51.758,-435.547,0.000
1731796505.078,-799.316,569.336,-11.230,968.262,0.000
1731796505.082,718.262,-990.723,-19.043,869.629,0.000
1731796505.085,-812.012,-963.379,-61.523,-798.340,0.000
1731796505.089,-281.250,687.500,-60.547,-966.797,0.000
1731796505.093,-857.910,950.195,-14.648,757.324,0.000
1731796505.097,889.648,-742.676,-22.949,-997.559,0.000
1731796505.101,-691.895,-1000.000,-67.871,-706.543,0.000
1731796505.105,-930.176,512.695,-59.570,-1000.000,0.000
1731796505.109,790.527,-940.430,-18.555,632.324,0.000
1731796505.113,-912.109,-501.465,-10.742,-921.875,0.000
1731796505.117,-561.523,-1000.000,-33.203,-488.770,0.000
1731796505.121,-1000.000,-58.594,-45.410,-1000.000,0.000
1731796505.125,581.543,-878.906,6.836,118.164,0.000
1731796505.128,-772.949,285.156,6.836,-844.238,0.000
1731796505.132,56.152,-1000.000,-23.926,68.359,0.000
1731796505.136,-1000.000,-762.695,-38.574,-1000.000,0.000
1731796505.140,242.188,847.168,-29.785,-512.695,0.000
1731796505.144,-783.691,949.707,4.883,958.496,0.000
1731796505.148,707.031,-750.488,18.066,738.281,0.000
1731796505.152,-868.164,-1000.000,-39.551,-894.043,0.000
1731796505.156,-628.418,661.621,-45.410,-1000.000,0.000
1731796505.160,-984.863,-918.457,11.719,685.059,0.000
1731796505.164,937.988,-543.457,15.137,979.004,0.000
1731796505.167,-692.871,-1000.000,-24.414,-658.203,0.000
1731796505.171,-1000.000,470.215,-43.457,-1000.000,0.000
1731796505.175,675.781,-922.852,-12.695,281.250,0.000
1731796505.179,-893.555,-422.363,6.836,990.723,0.000
1731796505.183,-572.266,-1000.000,0.000,-528.809,0.000
1731796505.187,-1000.000,-329.102,-34.668,-1000.000,0.000
1731796505.191,575.684,-962.402,-17.578,-360.352,0.000
1731796505.195,-779.785,328.125,5.371,983.398,0.000
1731796505.199,123.047,-1000.000,-11.719,53.223,0.000
1731796505.203,-1000.000,-808.594,-49.805,-1000.000,0.000
1731796505.207,98.633,801.270,-30.762,-858.398,0.000
1731796505.210,-810.059,976.562,27.344,718.262,0.000
1731796505.214,780.273,-731.934,14.160,843.262,0.000
1731796505.218,-808.594,-1000.000,-33.203,-894.531,0.000
1731796505.222,-766.113,673.340,-22.461,-1000.000,0.000
1731796505.226,955.078,-963.379,26.367,679.688,0.000
1731796505.230,959.473,-665.039,17.578,-991.699,0.000
1731796505.234,-702.148,-1000.000,-23.926,-690.430,0.000
1731796505.238,-1000.000,545.898,-35.156,-1000.000,0.000
1731796505.242,626.465,-876.465,-8.301,512.695,0.000
1731796505.246,-825.684,-237.793,0.977,-902.832,0.000
1731796505.250,-405.762,-1000.000,-28.809,-377.930,0.000
1731796505.253,-1000.000,-385.254,-52.246,-1000.000,0.000
1731796505.257,504.883,-969.238,-0.488,-297.852,0.000
1731796505.261,-769.531,710.938,35.645,-947.266,0.000
1731796505.265,442.383,-897.461,-0.488,342.285,0.000
1731796505.269,-987.793,-985.840,-60.059,-1000.000,0.000
1731796505.273,-71.289,712.891,-46.875,-936.035,0.000
1731796505.277,-812.500,969.727,-4.883,735.352,0.000
1731796505.281,793.945,-767.090,-0.488,678.711,0.000
1731796505.285,-796.387,-1000.000,-35.645,-864.258,0.000
1731796505.289,-846.680,637.695,-53.223,-1000.000,0.000
1731796505.292,896.484,-884.766,-29.297,-174.805,0.000
1731796505.296,976.074,-423.828,-10.254,817.871,0.000
1731796505.300,-708.008,-1000.000,-13.672,-528.320,0.000
1731796505.304,-1000.000,223.633,-28.320,-1000.000,0.000
1731796505.308,619.141,-828.613,-13.184,-491.699,0.000
1731796505.312,-821.777,35.156,13.672,763.672,0.000
1731796505.316,-358.887,-1000.000,-26.367,-321.777,0.000
1731796505.320,-1000.000,-541.016,-92.773,-1000.000,0.000
1731796505.324,414.551,957.520,-33.203,-832.031,0.000
1731796505.328,-779.785,903.809,27.344,693.848,0.000
1731796505.332,586.914,-750.977,0.488,561.035,0.000
1731796505.335,-939.453,-1000.000,-54.199,-1000.000,0.000
1731796505.339,-269.043,687.988,-65.918,-968.262,0.000
1731796505.343,-872.070,-973.633,-31.250,657.715,0.000
1731796505.347,893.066,-686.035,-7.812,964.355,0.000
1731796505.351,-691.406,-1000.000,-43.945,-741.699,0.000
1731796505.355,-936.035,546.387,-69.824,-1000.000,0.000
1731796505.359,804.199,-829.102,-14.648,527.832,0.000
1731796505.363,-950.684,-194.336,16.602,-963.867,0.000
1731796505.367,-634.277,-1000.000,-25.879,-568.848,0.000
1731796505.371,-1000.000,18.555,-55.176,-1000.000,0.000
1731796505.375,583.984,-855.469,-21.973,34.180,0.000
1731796505.378,-778.320,745.117,-9.766,-857.910,0.000
1731796505.382,56.152,-832.031,-28.320,217.285,0.000
1731796505.386,-1000.000,-879.395,-75.195,-1000.000,0.000
1731796505.390,214.844,859.375,-71.289,-616.699,0.000
1731796505.394,-791.504,947.266,-2.441,935.547,0.000
1731796505.398,734.863,-752.441,-14.160,896.973,0.000
1731796505.402,-845.215,-1000.000,-85.449,-784.180,0.000
1731796505.406,-672.852,686.035,-62.012,-996.094,0.000
1731796505.410,-999.512,-979.004,4.395,724.121,0.000
1731796505.414,943.848,-672.852,4.883,-979.980,0.000
1731796505.418,-696.289,-1000.000,-41.504,-699.219,0.000
1731796505.421,-1000.000,464.844,-65.918,-1000.000,0.000
1731796505.425,648.926,-825.684,-18.555,590.820,0.000
1731796505.429,-851.562,-87.402,0.488,-817.871,0.000
1731796505.433,-474.609,-1000.000,-58.105,-247.070,0.000
1731796505.437,-1000.000,-229.492,-81.543,-1000.000,0.000
1731796505.441,536.133,-897.461,-22.949,243.164,0.000
1731796505.445,-773.926,353.027,-9.766,-791.992,0.000
1731796505.449,276.855,-1000.000,-35.156,613.770,0.000
1731796505.453,-1000.000,-807.617,-67.383,-943.848,0.000
1731796505.457,-19.531,838.867,-49.805,-581.543,0.000
1731796505.460,-822.266,892.090,-0.977,-985.840,0.000
1731796505.464,805.176,-811.035,-23.438,934.082,0.000
1731796505.468,-781.250,-1000.000,-67.871,-696.777,0.000
1731796505.472,-853.027,678.223,-72.266,-1000.000,0.000
1731796505.476,893.555,-990.723,-40.527,703.613,0.000
1731796505.480,977.051,-669.922,-23.438,-937.012,0.000
1731796505.484,-707.520,-1000.000,-47.852,-621.094,0.000
1731796505.488,-1000.000,386.719,-58.105,-1000.000,0.000
1731796505.492,621.582,-811.523,-23.438,533.691,0.000
1731796505.496,-827.148,39.062,-10.254,-791.992,0.000
1731796505.500,-375.000,-1000.000,-47.363,-40.039,0.000
1731796505.503,-1000.000,-352.051,-78.125,-1000.000,0.000
1731796505.507,419.922,-931.641,-43.945,96.191,0.000
1731796505.511,-770.508,392.578,-14.160,-817.871,0.000
1731796505.515,508.789,-1000.000,-35.156,743.652,0.000
1731796505.519,-978.516,-827.148,-64.453,-850.586,0.000
1731796505.523,-198.730,802.734,-51.758,-695.312,0.000
1731796505.527,-862.793,962.402,-18.066,977.539,0.000
1731796505.531,890.137,-747.070,-25.391,951.660,0.000
1731796505.535,-702.637,-1000.000,-64.941,-702.148,0.000
1731796505.539,-866.211,661.621,-67.383,-1000.000,0.000
1731796505.542,868.164,-948.242,-28.809,653.320,0.000
1731796505.546,-959.473,-533.691,-20.996,-835.449,0.000
1731796505.550,-615.723,-1000.000,-52.246,-415.039,0.000
1731796505.554,-1000.000,157.715,-72.266,-1000.000,0.000
1731796505.558,577.148,-865.234,-42.480,506.348,0.000
1731796505.562,-758.301,-55.664,-20.020,-766.602,0.000
1731796505.566,12.695,-1000.000,-36.133,459.473,0.000
1731796505.570,-954.102,-646.484,-77.148,-940.430,0.000
1731796505.574,450.684,921.387,-62.012,43.457,0.000
1731796505.578,-777.344,496.582,-25.391,-806.641,0.000
1731796505.582,708.496,-1000.000,-39.062,848.145,0.000
1731796505.585,-777.344,-943.848,-68.359,-718.750,0.000
1731796505.589,-83.984,665.039,-57.617,-676.270,0.000
1731796505.593,-806.152,-971.680,-17.578,980.469,0.000
1731796505.597,869.141,-708.008,-29.785,-990.723,0.000
1731796505.601,-708.984,-1000.000,-72.266,-612.305,0.000
1731796505.605,-778.320,594.238,-71.289,-958.008,0.000
1731796505.609,884.277,-830.566,-27.344,640.625,0.000
1731796505.613,-872.070,-100.098,-18.555,-766.113,0.000
1731796505.617,-383.789,-1000.000,-59.082,33.203,0.000
1731796505.621,-1000.000,-82.520,-78.613,-899.902,0.000
1731796505.625,545.410,-846.191,-40.039,503.906,0.000
1731796505.628,-739.258,390.625,-5.859,-770.508,0.000
1731796505.632,403.809,-1000.000,-25.391,695.312,0.000
1731796505.636,-802.246,-746.094,-62.988,-687.500,0.000
1731796505.640,406.250,908.691,-62.500,149.414,0.000
1731796505.644,-776.367,847.656,-48.828,-778.320,0.000
1731796505.648,798.340,-842.285,-45.410,863.281,0.000
1731796505.652,-667.480,-1000.000,-66.406,-665.527,0.000
1731796505.656,-140.625,678.711,-49.316,-518.066,0.000
1731796505.660,-819.824,-978.516,3.906,982.910,0.000
1731796505.664,896.973,-657.227,1.465,-883.789,0.000
1731796505.668,-662.598,-1000.000,-41.992,-208.984,0.000
1731796505.671,-853.516,460.449,-53.223,-898.926,0.000
1731796505.675,804.688,-888.672,-14.160,611.816,0.000
1731796505.679,-826.660,-303.711,2.930,-759.277,0.000
1731796505.683,-264.648,-1000.000,-29.297,520.020,0.000
1731796505.687,-979.980,-379.883,-61.035,-665.527,0.000
1731796505.691,536.133,-970.215,-13.672,426.758,0.000
1731796505.695,-751.465,408.691,25.391,-757.324,0.000
1731796505.699,501.953,-1000.000,-6.836,767.578,0.000
1731796505.703,-850.098,-836.426,-49.316,-627.441,0.000
1731796505.707,229.980,828.613,-11.719,78.125,0.000
1731796505.710,-784.668,782.227,39.062,-789.062,0.000
1731796505.714,834.961,-900.391,35.645,883.789,0.000
1731796505.718,-701.660,-1000.000,2.441,-636.230,0.000
1731796505.722,-614.746,659.180,-7.324,-828.613,0.000
1731796505.726,-964.355,-952.637,29.297,861.328,0.000
1731796505.730,944.824,-639.160,32.227,-884.766,0.000
1731796505.734,-675.781,-1000.000,-0.488,-438.965,0.000
1731796505.738,-1000.000,518.555,-16.602,-1000.000,0.000
1731796505.742,636.719,-867.188,3.906,575.195,0.000
1731796505.746,-804.688,-281.738,8.789,-768.066,0.000
1731796505.750,-329.590,-1000.000,-5.859,90.332,0.000
1731796505.753,-1000.000,-103.516,-15.137,-1000.000,0.000
1731796505.757,519.531,-878.906,19.531,232.910,0.000
1731796505.761,-769.531,391.602,24.902,-776.367,0.000
1731796505.765,504.883,-1000.000,-16.602,648.438,0.000
1731796505.769,-956.543,-762.207,-8.301,-898.926,0.000
1731796505.773,-73.242,870.117,32.715,-776.367,0.000
1731796505.777,-814.453,943.359,55.176,937.012,0.000
1731796505.781,823.242,-747.070,29.297,873.047,0.000
1731796505.785,-751.953,-1000.000,-9.277,-794.434,0.000
1731796505.789,-880.859,664.062,-17.578,-1000.000,0.000
1731796505.793,874.512,-938.965,22.461,665.527,0.000
1731796505.796,982.910,-554.199,32.715,958.984,0.000
1731796505.800,-707.031,-1000.000,-3.906,-605.957,0.000
1731796505.804,-1000.000,310.547,-27.344,-1000.000,0.000
1731796505.808,635.742,-849.609,5.859,-247.559,0.000
1731796505.812,-859.863,-126.465,26.855,858.887,0.000
1731796505.816,-438.477,-1000.000,-2.441,-413.574,0.000
1731796505.820,-1000.000,-473.145,-27.832,-1000.000,0.000
1731796505.824,369.629,-998.535,6.348,-724.121,0.000
1731796505.828,-779.297,353.516,40.039,796.875,0.000
1731796505.832,432.129,-1000.000,25.879,232.910,0.000
1731796505.835,-1000.000,-894.043,-13.184,-1000.000,0.000
1731796505.839,-391.113,616.699,-15.137,-1000.000,0.000
1731796505.843,-909.668,-838.867,21.973,-374.023,0.000
1731796505.847,837.402,-392.090,32.715,452.637,0.000
1731796505.851,-796.387,-1000.000,-5.859,-814.941,0.000
1731796505.855,-943.848,522.461,-27.344,-1000.000,0.000
1731796505.859,796.875,-803.711,16.602,-896.973,0.000
1731796505.863,-1000.000,-176.758,28.809,-957.520,0.000
1731796505.867,-714.355,-1000.000,-9.766,-927.246,0.000
1731796505.871,-1000.000,108.398,-21.484,-1000.000,0.000
1731796505.875,619.141,-809.570,2.930,-827.148,0.000
1731796505.878,-822.754,528.809,30.273,538.574,0.000
1731796505.882,-335.938,-987.793,3.418,-355.469,0.000
1731796505.886,-1000.000,-722.656,-47.852,-1000.000,0.000
1731796505.890,353.516,918.945,-20.020,-994.629,0.000
1731796505.894,-778.320,963.867,26.855,218.262,0.000
1731796505.898,562.012,-705.078,24.414,45.898,0.000
1731796505.902,-968.750,-1000.000,-19.531,-1000.000,0.000
1731796505.906,-370.117,665.039,-20.508,-1000.000,0.000
1731796505.910,-908.691,-902.832,20.996,-380.371,0.000
1731796505.914,910.645,-543.945,22.461,513.672,0.000
1731796505.917,-701.172,-1000.000,-23.438,-723.145,0.000
1731796505.921,0.000,534.180,-33.691,-1000.000,0.000
1731796505.925,0.000,-870.117,15.625,-145.996,0.000
1731796505.929,0.000,-357.910,7.324,832.520,0.000
1731796505.933,0.000,-1000.000,-28.809,-517.578,0.000
1731796505.937,0.000,71.289,-46.387,-1000.000,0.000
1731796505.941,0.000,-846.191,-10.742,-650.879,0.000
1731796505.945,0.000,173.340,23.926,687.988,0.000
1731796505.949,0.000,-1000.000,-6.836,-279.297,0.000
1731796505.953,0.000,-821.777,-43.945,-1000.000,0.000
1731796505.957,0.000,766.602,-16.113,-1000.000,0.000
1731796505.960,0.000,-997.559,20.996,198.242,0.000
1731796505.964,0.000,-714.844,14.160,215.820,0.000
1731796505.968,-876.465,-1000.000,-30.273,-1000.000,0.000
1731796505.972,-490.234,643.066,-26.367,-1000.000,0.000
1731796505.976,-930.664,-873.047,10.742,-509.277,0.000
1731796505.980,920.410,-480.957,12.207,564.941,0.000
1731796505.984,-698.730,-1000.000,-2.930,-578.125,0.000
1731796505.988,-965.332,532.715,-35.156,-1000.000,0.000
1731796505.992,741.211,-885.254,-13.184,-398.926,0.000
1731796505.996,-891.602,-342.285,2.441,716.309,0.000
1731796506.000,-541.992,-1000.000,-25.879,-482.910,0.000
1731796506.003,-1000.000,-277.832,-45.898,-1000.000,0.000
1731796506.007,578.613,-944.336,-20.508,-811.035,0.000
1731796506.011,-776.367,754.883,11.719,561.035,0.000
1731796506.015,142.578,-877.930,-7.324,-149.902,0.000
1731796506.019,-1000.000,-914.551,-51.270,-1000.000,0.000
1731796506.023,129.395,790.039,-36.621,-1000.000,0.000
1731796506.027,-792.969,993.652,-3.906,376.465,0.000
1731796506.031,736.328,-723.145,0.000,402.832,0.000
1731796506.035,-845.703,-1000.000,-37.598,-975.586,0.000
1731796506.039,-773.438,620.605,-34.180,-1000.000,0.000
1731796506.043,943.359,-820.312,17.090,-556.152,0.000
1731796506.046,961.914,-224.121,25.391,551.758,0.000
1731796506.050,-700.195,-1000.000,-12.695,-542.480,0.000
1731796506.054,-1000.000,272.949,-40.039,-1000.000,0.000
1731796506.058,635.254,-784.180,7.812,-748.047,0.000
1731796506.062,-855.957,253.906,26.367,439.941,0.000
1731796506.066,-471.191,-1000.000,-12.695,-401.367,0.000
1731796506.070,-1000.000,-526.367,-51.270,-1000.000,0.000
1731796506.074,477.539,-992.188,-25.879,-832.520,0.000
1731796506.078,-774.902,841.797,10.742,628.418,0.000
1731796506.082,363.770,-800.293,-3.418,126.465,0.000
1731796506.085,-1000.000,-1000.000,-41.504,-1000.000,0.000
1731796506.089,-153.320,691.406,-40.527,-1000.000,0.000
1731796506.093,-865.234,-979.980,-11.230,461.914,0.000
1731796506.097,768.555,-707.520,-16.113,764.160,0.000
1731796506.101,-760.254,-1000.000,-44.922,-876.465,0.000
1731796506.105,-868.164,593.262,-52.246,-1000.000,0.000
1731796506.109,853.516,-842.773,-13.184,454.102,0.000
1731796506.113,-981.445,-240.234,11.719,-987.305,0.000
1731796506.117,-664.062,-1000.000,-31.738,-603.027,0.000
1731796506.121,-1000.000,81.543,-65.430,-1000.000,0.000
1731796506.125,596.191,-818.848,-20.508,24.414,0.000
1731796506.128,-786.621,399.414,14.648,-899.414,0.000
1731796506.132,-137.207,-1000.000,-14.160,-75.684,0.000
1731796506.136,-1000.000,-721.191,-48.340,-1000.000,0.000
1731796506.140,341.309,935.059,-24.414,-520.508,0.000
1731796506.144,-786.621,791.992,19.531,972.656,0.000
1731796506.148,675.781,-873.535,8.789,760.742,0.000
1731796506.152,-885.254,-996.094,-44.922,-915.527,0.000
1731796506.156,-461.914,702.637,-48.828,-918.945,0.000
1731796506.160,-922.852,990.723,-0.488,774.414,0.000
1731796506.164,916.992,-722.168,4.883,-998.047,0.000
1731796506.168,-700.195,-1000.000,-35.156,-712.891,0.000
1731796506.171,-954.590,576.660,-51.270,-1000.000,0.000
1731796506.175,741.699,-928.711,-9.766,627.930,0.000
1731796506.179,-872.070,-443.359,0.977,-842.285,0.000
1731796506.183,-496.582,-1000.000,-35.645,-372.070,0.000
1731796506.187,-1000.000,-182.129,-59.570,-1000.000,0.000
1731796506.191,565.918,-903.320,-23.438,323.242,0.000
1731796506.195,-762.207,498.535,6.348,-779.297,0.000
1731796506.199,254.395,-1000.000,-23.926,513.672,0.000
1731796506.203,-997.559,-726.562,-60.059,-986.328,0.000
1731796506.207,203.125,903.320,-36.621,-352.539,0.000
1731796506.210,-789.062,962.402,7.812,-908.691,0.000
1731796506.214,790.527,-708.984,3.906,891.602,0.000
1731796506.218,-773.438,-1000.000,-44.922,-708.008,0.000
1731796506.222,-629.883,694.824,-55.176,-972.656,0.000
1731796506.226,-972.656,992.188,-14.648,771.484,0.000
1731796506.230,936.035,-712.402,-9.277,-981.445,0.000
1731796506.234,-698.730,-1000.000,-58.594,-686.523,0.000
1731796506.238,-1000.000,483.887,-65.918,-1000.000,0.000
1731796506.242,651.855,-848.145,-16.113,589.355,0.000
1731796506.246,-815.918,-196.289,-6.836,-818.359,0.000
1731796506.250,-385.742,-1000.000,-35.645,-210.938,0.000
1731796506.253,-999.512,-204.590,-61.035,-1000.000,0.000
1731796506.257,552.246,-895.996,-39.062,162.109,0.000
1731796506.261,-765.137,468.750,-6.348,-803.223,0.000
1731796506.265,471.191,-1000.000,-9.766,621.582,0.000
1731796506.269,-941.406,-779.785,-47.363,-941.895,0.000
1731796506.273,83.496,875.488,-41.016,-601.074,0.000
1731796506.277,-799.805,884.766,-3.418,-999.512,0.000
1731796506.281,853.027,-805.176,-13.184,941.406,0.000
1731796506.285,-702.637,-1000.000,-48.340,-705.078,0.000
1731796506.289,-770.020,668.945,-41.992,-982.422,0.000
1731796506.293,952.148,-961.914,3.418,691.895,0.000
1731796506.296,996.094,-576.172,5.371,-853.516,0.000
1731796506.300,-645.996,-1000.000,-35.645,-456.055,0.000
1731796506.304,-1000.000,246.094,-60.547,-1000.000,0.000
1731796506.308,595.703,-864.746,-20.508,540.527,0.000
1731796506.312,-779.297,-154.297,-0.488,-759.766,0.000
1731796506.316,-185.059,-1000.000,-31.738,321.777,0.000
1731796506.320,-1000.000,-556.641,-62.500,-966.309,0.000
1731796506.324,468.750,948.242,-37.109,189.941,0.000
1731796506.328,-774.902,333.008,-0.488,-789.551,0.000
1731796506.332,607.910,-1000.000,-29.785,805.176,0.000
1731796506.335,-903.320,-888.672,-66.406,-750.000,0.000
1731796506.339,-194.336,714.355,-48.340,-655.762,0.000
1731796506.343,-848.633,955.078,-12.695,-995.605,0.000
1731796506.347,884.277,-771.973,-17.578,964.355,0.000
1731796506.351,-697.266,-1000.000,-57.129,-670.410,0.000
1731796506.355,-886.719,561.523,-67.871,-988.770,0.000
1731796506.359,840.820,-816.406,-43.457,646.484,0.000
1731796506.363,-933.105,-150.879,-34.180,-799.316,0.000
1731796506.367,-578.613,-1000.000,-57.617,-250.488,0.000
1731796506.371,-1000.000,137.207,-71.289,-991.211,0.000
1731796506.375,580.566,-795.898,-34.668,513.184,0.000
1731796506.378,-768.066,490.723,-11.230,-765.137,0.000
1731796506.382,24.414,-1000.000,-33.203,503.418,0.000
1731796506.386,-1000.000,-645.996,-61.523,-926.270,0.000
1731796506.390,331.055,987.793,-39.062,-8.789,0.000
1731796506.394,-781.738,821.777,4.395,-814.941,0.000
1731796506.398,706.055,-817.383,-14.160,855.957,0.000
1731796506.402,-848.633,-1000.000,-58.594,-705.078,0.000
1731796506.406,-444.336,682.129,-45.410,-839.355,0.000
1731796506.410,-912.598,-979.492,-12.695,902.832,0.000
1731796506.414,912.598,-688.477,-16.602,997.070,0.000
1731796506.418,-698.242,-1000.000,-49.805,-671.387,0.000
1731796506.421,-956.055,563.477,-61.523,-1000.000,0.000
1731796506.425,741.211,-902.344,-28.809,614.746,0.000
1731796506.429,-872.559,-345.215,-10.742,-819.336,0.000
1731796506.433,-496.094,-1000.000,-34.180,-257.812,0.000
1731796506.437,-1000.000,-335.938,-60.547,-1000.000,0.000
1731796506.441,578.125,-954.102,-27.344,297.852,0.000
1731796506.445,-770.996,366.211,-1.953,-787.598,0.000
1731796506.449,85.449,-1000.000,-11.719,200.195,0.000
1731796506.453,-1000.000,-720.215,-39.062,-1000.000,0.000
1731796506.457,207.031,919.922,-26.367,-525.391,0.000
1731796506.460,-785.645,770.508,17.090,-986.816,0.000
1731796506.464,722.168,-895.020,4.395,777.832,0.000
1731796506.468,-857.422,-1000.000,-40.039,-863.770,0.000
1731796506.472,-652.344,668.945,-36.621,-1000.000,0.000
1731796506.476,-992.676,-971.680,3.418,705.566,0.000
1731796506.480,941.895,-676.270,2.930,971.680,0.000
1731796506.484,-696.289,-1000.000,-33.691,-693.359,0.000
1731796506.488,-1000.000,531.738,-46.387,-1000.000,0.000
1731796506.492,682.129,-840.820,-8.789,432.617,0.000
1731796506.496,-892.090,-297.363,11.719,988.770,0.000
1731796506.500,-567.871,-1000.000,-28.320,-549.805,0.000
1731796506.503,-1000.000,181.641,-62.012,-1000.000,0.000
1731796506.507,584.473,-821.777,-31.250,-647.949,0.000
1731796506.511,-779.785,482.910,-9.277,760.742,0.000
1731796506.515,60.059,-984.375,-39.551,-107.910,0.000
1731796506.519,-1000.000,-813.965,-78.613,-1000.000,0.000
1731796506.523,167.969,845.703,-63.477,-910.156,0.000
1731796506.527,-792.480,973.145,-30.762,625.488,0.000
1731796506.531,734.863,-720.703,-40.527,583.984,0.000
1731796506.535,-850.586,-1000.000,-67.383,-961.914,0.000
1731796506.539,-693.848,659.668,-67.383,-1000.000,0.000
1731796506.543,990.723,-919.434,-37.598,156.738,0.000
1731796506.546,947.754,-608.887,-26.855,870.117,0.000
1731796506.550,-698.730,-1000.000,-58.594,-624.023,0.000
1731796506.554,-1000.000,521.973,-73.730,-1000.000,0.000
1731796506.558,649.414,-818.359,-51.270,-624.512,0.000
1731796506.562,-848.633,613.770,-18.066,597.656,0.000
1731796506.566,-468.750,-877.441,-32.715,-441.406,0.000
1731796506.570,-1000.000,-330.078,-80.566,-1000.000,0.000
1731796506.574,536.133,-899.414,-52.734,-966.797,0.000
1731796506.578,-771.484,919.434,-20.508,235.840,0.000
1731796506.582,321.289,-669.434,-31.250,-79.102,0.000
1731796506.585,-1000.000,-938.477,-57.617,-1000.000,0.000
1731796506.589,4.883,758.789,-42.480,-946.289,0.000
1731796506.593,-824.219,-883.301,-14.648,-996.582,0.000
1731796506.597,845.215,-494.141,-26.367,-1000.000,0.000
1731796506.601,-734.375,-980.957,-65.918,-918.457,0.000
1731796506.605,-818.848,621.582,-73.730,-1000.000,0.000
1731796506.609,933.105,-787.598,-38.574,-641.113,0.000
1731796506.613,968.262,19.531,-24.414,576.172,0.000
1731796506.617,-705.078,-1000.000,-51.270,-499.512,0.000
1731796506.621,-1000.000,260.742,-68.848,-1000.000,0.000
1731796506.625,617.188,-798.828,-36.133,-819.336,0.000
1731796506.628,-817.383,761.230,-10.254,369.629,0.000
1731796506.632,-352.051,-792.480,-30.273,-381.836,0.000
1731796506.636,-1000.000,-572.754,-67.871,-1000.000,0.000
1731796506.640,429.688,-967.285,-46.387,-1000.000,0.000
1731796506.644,-771.973,948.242,-18.066,110.352,0.000
1731796506.648,509.766,-677.734,-30.762,19.531,0.000
1731796506.652,-983.887,-977.539,-67.383,-1000.000,0.000
1731796506.656,-237.793,746.582,-48.828,-1000.000,0.000
1731796506.660,-871.094,-935.547,-4.395,-29.785,0.000
1731796506.664,888.184,-603.027,-8.789,627.930,0.000
1731796506.668,-707.031,-1000.000,-41.016,-815.430,0.000
1731796506.671,-896.484,619.141,-57.129,-1000.000,0.000
1731796506.675,855.957,-894.043,-24.902,5.859,0.000
1731796506.679,-988.281,-414.062,-9.277,885.742,0.000
1731796506.683,-674.316,-1000.000,-41.504,-547.852,0.000
1731796506.687,-1000.000,74.707,-67.383,-1000.000,0.000
1731796506.691,598.145,-840.332,-34.668,-423.828,0.000
1731796506.695,-791.992,295.898,-4.883,866.211,0.000
1731796506.699,-137.207,-1000.000,-27.344,-234.863,0.000
1731796506.703,-1000.000,-723.633,-68.359,-1000.000,0.000
1731796506.707,300.293,905.762,-52.734,-826.660,0.000
1731796506.710,-792.969,868.652,-9.277,710.938,0.000
1731796506.714,701.172,-818.848,-12.207,748.535,0.000
1731796506.718,-870.605,-1000.000,-62.500,-965.332,0.000
1731796506.722,-552.734,676.758,-62.012,-992.676,0.000
1731796506.726,-954.590,-959.473,-15.137,680.176,0.000
1731796506.730,927.734,-664.062,-13.184,976.562,0.000
1731796506.734,-694.336,-1000.000,-48.828,-717.773,0.000
1731796506.738,-998.047,573.730,-60.547,-1000.000,0.000
1731796506.742,700.684,-872.559,-20.508,504.883,0.000
1731796506.746,-886.230,-286.133,-9.766,-956.543,0.000
1731796506.750,-550.293,-1000.000,-52.246,-531.738,0.000
1731796506.753,-1000.000,-186.523,-80.078,-1000.000,0.000
1731796506.757,566.895,-893.555,-50.781,-106.445,0.000
1731796506.761,-773.438,486.816,-16.602,-884.277,0.000
1731796506.765,342.773,-1000.000,-20.996,461.426,0.000
1731796506.769,-1000.000,-926.758,-56.152,-1000.000,0.000
1731796506.773,65.918,727.051,-48.828,-771.484,0.000
1731796506.777,-798.340,974.121,-8.789,880.371,0.000
1731796506.781,795.898,-755.859,-14.160,884.277,0.000
1731796506.785,-784.180,-1000.000,-55.664,-809.570,0.000
1731796506.789,-778.320,675.781,-58.105,-1000.000,0.000
1731796506.793,951.172,-970.215,-15.137,687.500,0.000
1731796506.796,960.938,-613.770,-12.695,-974.609,0.000
1731796506.800,-705.078,-1000.000,-57.129,-683.105,0.000
1731796506.804,-1000.000,341.309,-81.543,-1000.000,0.000
1731796506.808,605.469,-853.516,-41.504,509.766,0.000
1731796506.812,-791.016,-239.746,-12.207,-798.340,0.000
1731796506.816,-263.184,-1000.000,-37.109,-44.922,0.000
1731796506.820,-1000.000,-205.078,-71.777,-1000.000,0.000
1731796506.824,490.234,-914.551,-47.852,29.785,0.000
1731796506.828,-771.484,254.395,-5.371,-837.402,0.000
1731796506.832,585.449,-1000.000,-18.555,758.789,0.000
1731796506.835,-902.344,-917.480,-62.500,-844.238,0.000
1731796506.839,-73.242,698.730,-57.129,-744.629,0.000
1731796506.843,-819.336,844.238,-17.578,945.312,0.000
1731796506.847,870.605,-858.887,-14.160,960.449,0.000
1731796506.851,-698.242,-1000.000,-47.852,-701.660,0.000
1731796506.855,-840.820,607.422,-50.781,-1000.000,0.000
1731796506.859,884.277,-887.695,-6.348,649.902,0.000
1731796506.863,-946.289,-412.109,1.465,-858.398,0.000
1731796506.867,-580.566,-1000.000,-29.297,-453.125,0.000
1731796506.871,-1000.000,127.930,-52.246,-1000.000,0.000
1731796506.875,583.008,-834.473,-36.133,458.496,0.000
1731796506.878,-768.066,194.336,-21.484,-781.738,0.000
1731796506.882,-17.090,-1000.000,-42.969,223.633,0.000
1731796506.886,-1000.000,-678.223,-63.477,-1000.000,0.000
1731796506.890,371.582,929.199,-32.227,-221.191,0.000
1731796506.894,-773.926,778.809,-7.324,-875.488,0.000
1731796506.898,666.992,-880.371,-27.832,775.879,0.000
1731796506.902,-873.535,-994.141,-60.059,-836.914,0.000
1731796506.906,-339.844,697.266,-57.129,-910.645,0.000
1731796506.910,-882.812,-999.023,-11.230,813.477,0.000
1731796506.914,899.902,-708.008,-3.418,994.629,0.000
1731796506.918,-695.801,-1000.000,-49.316,-708.008,0.000
1731796506.921,-935.059,564.941,-52.734,-1000.000,0.000
1731796506.925,782.715,-921.875,-7.324,650.391,0.000
1731796506.929,-909.180,-435.059,-3.418,-900.391,0.000
1731796506.933,-559.570,-1000.000,-44.434,-470.215,0.000
1731796506.937,-1000.000,-139.160,-69.824,-1000.000,0.000
1731796506.941,579.102,-900.391,-22.949,223.145,0.000
1731796506.945,-769.043,278.320,4.883,-804.688,0.000
1731796506.949,72.266,-1000.000,-28.320,197.754,0.000
1731796506.953,-1000.000,-737.793,-61.035,-1000.000,0.000
1731796506.957,265.137,908.691,-44.434,-411.133,0.000
1731796506.960,-780.762,660.156,-20.996,-943.359,0.000
1731796506.964,712.402,-969.238,-46.387,789.062,0.000
1731796506.968,-855.957,-976.074,-79.590,-852.051,0.000
1731796506.972,-546.387,683.594,-60.059,-944.336,0.000
1731796506.976,-949.707,993.164,-20.996,769.043,0.000
1731796506.980,925.293,-727.539,-18.555,-998.047,0.000
1731796506.984,-694.336,-1000.000,-62.988,-709.473,0.000
1731796506.988,-997.559,577.148,-84.961,-1000.000,0.000
1731796506.992,674.805,-902.832,-50.781,595.703,0.000
1731796506.996,-842.773,-386.230,-32.227,-828.125,0.000
1731796507.000,-454.102,-1000.000,-57.129,-284.668,0.000
1731796507.003,-1000.000,-129.395,-79.102,-1000.000,0.000
1731796507.007,559.082,-889.648,-46.387,232.422,0.000
1731796507.011,-768.555,610.840,-15.625,-797.363,0.000
1731796507.015,418.457,-949.707,-36.621,615.723,0.000
1731796507.019,-967.285,-890.137,-65.430,-942.871,0.000
1731796507.023,75.684,821.289,-42.480,-600.586,0.000
1731796507.027,-800.293,867.188,-2.930,-996.582,0.000
1731796507.031,832.520,-832.520,-17.090,930.176,0.000
1731796507.035,-731.934,-1000.000,-60.059,-707.031,0.000
1731796507.039,-790.527,687.500,-62.012,-1000.000,0.000
1731796507.043,950.195,973.633,-21.973,712.891,0.000
1731796507.046,962.402,-681.152,-20.508,-964.355,0.000
1731796507.050,-703.125,-1000.000,-51.758,-649.414,0.000
1731796507.054,-1000.000,291.504,-67.383,-1000.000,0.000
1731796507.058,616.211,-895.020,-35.156,497.559,0.000
1731796507.062,-814.941,-274.414,-14.648,-826.172,0.000
1731796507.066,-353.516,-1000.000,-42.480,-140.137,0.000
1731796507.070,-1000.000,-512.207,-63.965,-1000.000,0.000
1731796507.074,453.125,936.523,-29.785,-167.480,0.000
1731796507.078,-770.020,93.262,-12.695,-877.930,0.000
1731796507.082,375.488,-1000.000,-41.992,343.262,0.000
1731796507.085,-1000.000,-859.863,-62.012,-1000.000,0.000
1731796507.089,-205.078,685.547,-47.852,-868.652,0.000
1731796507.093,-865.723,978.516,-17.090,775.879,0.000
1731796507.097,845.215,-760.742,-24.902,881.348,0.000
1731796507.101,-759.766,-1000.000,-69.824,-825.195,0.000
1731796507.105,-901.367,629.883,-68.359,-1000.000,0.000
1731796507.109,852.051,979.980,-26.367,625.977,0.000
1731796507.113,987.793,-480.957,-17.090,963.379,0.000
1731796507.117,-708.984,-1000.000,-54.688,-593.750,0.000
1731796507.121,-1000.000,4.395,-81.055,-1000.000,0.000
1731796507.125,635.742,-867.188,-42.480,-357.910,0.000
1731796507.128,-860.352,114.258,-8.789,807.617,0.000
1731796507.132,-422.363,-1000.000,-39.062,-401.367,0.000
1731796507.136,-1000.000,-599.609,-81.543,-1000.000,0.000
1731796507.140,332.520,958.984,-49.316,-822.266,0.000
1731796507.144,-784.180,805.176,-12.207,624.023,0.000
1731796507.148,287.109,-861.816,-27.832,4.883,0.000
1731796507.152,-1000.000,-1000.000,-75.195,-1000.000,0.000
1731796507.156,-486.328,684.570,-68.848,-1000.000,0.000
1731796507.160,-960.938,-989.258,-25.879,273.926,0.000
1731796507.164,837.402,-701.660,-40.039,622.070,0.000
1731796507.168,-807.617,-1000.000,-74.219,-884.766,0.000
1731796507.171,-1000.000,457.031,-75.684,-1000.000,0.000
1731796507.175,719.727,-798.828,-28.809,-851.074,0.000
1731796507.179,-986.328,472.168,-12.207,242.188,0.000
1731796507.183,-715.332,-1000.000,-50.293,-509.766,0.000
1731796507.187,-1000.000,-269.043,-74.707,-1000.000,0.000
1731796507.191,632.324,-889.648,-33.691,-917.969,0.000
1731796507.195,-854.980,-27.832,-1.953,-1000.000,0.000
1731796507.199,-379.395,-1000.000,-36.621,-955.078,0.000
1731796507.203,-1000.000,-724.609,-74.707,-1000.000,0.000
1731796507.207,250.488,818.359,-63.477,-1000.000,0.000
1731796507.210,-787.109,973.145,-26.367,438.477,0.000
1731796507.214,499.023,-730.469,-17.578,131.836,0.000
1731796507.218,-1000.000,-1000.000,-44.922,-1000.000,0.000
1731796507.222,-621.094,686.523,-41.504,-1000.000,0.000
1731796507.226,983.887,-969.238,-12.207,168.457,0.000
1731796507.230,946.777,-681.641,-7.812,828.613,0.000
1731796507.234,-691.406,-1000.000,-45.898,-696.289,0.000
1731796507.238,-1000.000,556.641,-56.152,-1000.000,0.000
1731796507.242,686.523,-842.773,-26.367,-356.934,0.000
1731796507.246,-950.684,-233.398,-22.461,748.535,0.000
1731796507.250,-663.574,-1000.000,-52.246,-484.375,0.000
1731796507.253,-1000.000,-20.508,-72.266,-1000.000,0.000
1731796507.257,565.918,-852.051,-41.016,-518.555,0.000
1731796507.261,-802.734,630.859,-11.719,838.867,0.000
1731796507.265,-60.059,-916.504,-33.691,-116.699,0.000
1731796507.269,-1000.000,-913.086,-77.148,-1000.000,0.000
1731796507.273,16.602,800.293,-59.570,-858.887,0.000
1731796507.277,-824.219,928.711,-27.344,692.871,0.000
1731796507.281,708.008,-787.598,-38.574,674.805,0.000
1731796507.285,-892.578,-1000.000,-67.871,-1000.000,0.000
1731796507.289,-818.359,670.410,-69.824,-988.770,0.000
1731796507.293,896.973,-960.938,-34.180,650.391,0.000
1731796507.296,974.609,-607.422,-27.832,-999.023,0.000
1731796507.300,-705.078,-1000.000,-63.965,-683.594,0.000
1731796507.304,-1000.000,385.254,-85.449,-1000.000,0.000
1731796507.308,632.812,-880.371,-53.711,412.598,0.000
1731796507.312,-852.539,-274.902,-23.438,-861.816,0.000
1731796507.316,-428.223,-1000.000,-37.109,-291.504,0.000
1731796507.320,-1000.000,-444.336,-75.684,-1000.000,0.000
1731796507.324,385.742,992.676,-61.035,-227.051,0.000
1731796507.328,-779.785,269.531,-23.438,-917.480,0.000
1731796507.332,475.586,-1000.000,-30.273,719.727,0.000
1731796507.335,-1000.000,-895.508,-61.035,-925.293,0.000
1731796507.339,-382.812,699.219,-47.852,-836.914,0.000
1731796507.343,-919.434,945.312,-12.207,860.840,0.000
1731796507.347,894.531,-784.668,-6.348,982.910,0.000
1731796507.351,-718.262,-1000.000,-37.109,-705.566,0.000
1731796507.355,-965.332,636.719,-55.176,-1000.000,0.000
1731796507.359,789.551,-932.129,-19.531,647.949,0.000
1731796507.363,-996.094,-530.273,-23.926,-878.418,0.000
1731796507.367,-714.355,-1000.000,-56.641,-511.719,0.000
1731796507.371,-1000.000,232.422,-67.383,-1000.000,0.000
1731796507.375,611.816,-827.637,-41.016,481.445,0.000
1731796507.378,-814.941,121.094,-15.137,-784.180,0.000
1731796507.382,-238.281,-1000.000,-30.273,240.723,0.000
1731796507.386,-1000.000,-564.941,-71.777,-1000.000,0.000
1731796507.390,253.418,967.285,-42.969,-192.871,0.000
1731796507.394,-787.109,862.305,6.836,-871.582,0.000
1731796507.398,614.746,-789.551,-20.508,806.152,0.000
1731796507.402,-956.055,-1000.000,-57.617,-792.480,0.000
1731796507.406,-634.766,692.383,-59.570,-934.570,0.000
1731796507.410,996.094,-986.816,-27.832,801.270,0.000
1731796507.414,946.289,-710.938,-18.555,998.047,0.000
1731796507.417,-701.660,-1000.000,-55.176,-710.938,0.000
1731796507.421,-997.070,612.305,-53.223,-1000.000,0.000
1731796507.425,723.145,-906.738,-16.113,635.254,0.000
1731796507.429,-931.152,-409.668,-12.207,-858.887,0.000
1731796507.433,-626.953,-1000.000,-44.922,-418.945,0.000
1731796507.437,-1000.000,-44.434,-69.824,-1000.000,0.000
1731796507.441,590.820,-915.039,-34.668,344.238,0.000
1731796507.445,-795.898,-35.645,-24.902,-789.551,0.000
1731796507.449,-12.695,-1000.000,-52.734,366.211,0.000
1731796507.453,-1000.000,-748.535,-63.965,-1000.000,0.000
1731796507.457,79.590,823.730,-41.992,-579.102,0.000
1731796507.460,-809.082,877.930,-8.789,993.652,0.000
1731796507.464,705.566,-832.031,-24.902,878.418,0.000
1731796507.468,-889.648,-1000.000,-66.406,-776.855,0.000
1731796507.472,-784.180,681.152,-51.270,-1000.000,0.000
1731796507.476,927.734,-973.633,-9.766,713.867,0.000
1731796507.480,966.309,-667.480,-6.348,-990.723,0.000
1731796507.484,-699.219,-1000.000,-38.086,-694.336,0.000
1731796507.488,-1000.000,564.453,-50.293,-1000.000,0.000
1731796507.492,655.762,-957.520,-27.344,581.055,0.000
1731796507.496,-910.156,-504.395,-15.137,-942.871,0.000
1731796507.500,-566.895,-1000.000,-30.762,-459.961,0.000
1731796507.503,-1000.000,-182.617,-66.895,-1000.000,0.000
1731796507.507,474.609,-931.152,-53.711,-261.719,0.000
1731796507.511,-799.805,229.980,-19.531,-976.562,0.000
1731796507.515,-28.809,-1000.000,-34.180,0.488,0.000
1731796507.519,-1000.000,-778.809,-65.918,-1000.000,0.000
1731796507.523,-149.902,825.684,-48.340,-842.285,0.000
1731796507.527,-865.234,908.203,-15.137,743.652,0.000
1731796507.531,726.562,-797.852,-28.320,736.816,0.000
1731796507.535,-899.414,-1000.000,-60.547,-967.285,0.000
1731796507.539,-849.609,690.430,-61.523,-991.699,0.000
1731796507.542,866.699,977.539,-27.832,678.223,0.000
1731796507.546,982.422,-694.336,-9.277,981.445,0.000
1731796507.550,-706.543,-1000.000,-39.062,-675.293,0.000
1731796507.554,-1000.000,387.695,-53.711,-1000.000,0.000
1731796507.558,639.160,-898.926,-16.113,332.031,0.000
1731796507.562,-867.188,-347.656,-2.441,-931.641,0.000
1731796507.566,-472.168,-1000.000,-26.855,-415.527,0.000
1731796507.570,-1000.000,-345.703,-42.480,-1000.000,0.000
1731796507.574,422.852,-981.934,-13.672,-357.422,0.000
1731796507.578,-779.785,135.742,11.719,-980.957,0.000
1731796507.582,296.387,-1000.000,0.488,274.414,0.000
1731796507.585,-1000.000,-900.879,-41.992,-1000.000,0.000
1731796507.589,-303.711,665.039,-36.621,-920.410,0.000
1731796507.593,-898.438,966.309,3.418,698.730,0.000
1731796507.597,833.008,-783.691,0.000,870.605,0.000
1731796507.601,-796.875,-1000.000,-34.668,-842.285,0.000
1731796507.605,-917.480,603.027,-44.922,-1000.000,0.000
1731796507.609,825.195,-851.074,-12.207,563.965,0.000
1731796507.613,993.164,-265.137,-7.324,987.793,0.000
1731796507.617,-712.891,-1000.000,-48.828,-630.371,0.000
1731796507.621,-1000.000,41.504,-72.266,-1000.000,0.000
1731796507.625,618.652,-843.750,-34.180,40.039,0.000
1731796507.628,-823.242,346.191,-5.371,-919.434,0.000
1731796507.632,-321.777,-1000.000,-24.414,-181.641,0.000
1731796507.636,-1000.000,-663.086,-65.430,-1000.000,0.000
1731796507.640,319.336,969.727,-50.781,-696.289,0.000
1731796507.644,-776.855,744.629,-23.438,860.840,0.000
1731796507.648,523.438,-905.273,-41.992,567.871,0.000
1731796507.652,-1000.000,-990.234,-68.848,-1000.000,0.000
1731796507.656,-459.473,696.777,-51.270,-946.289,0.000
1731796507.660,-945.801,997.559,-10.742,687.988,0.000
1731796507.664,922.852,-717.773,-28.320,986.816,0.000
1731796507.668,-695.801,-1000.000,-77.637,-740.234,0.000
1731796507.671,-977.051,600.586,-84.473,-1000.000,0.000
1731796507.675,759.766,-954.102,-50.293,633.789,0.000
1731796507.679,-951.172,-502.441,-39.551,-952.148,0.000
1731796507.683,-653.320,-1000.000,-64.941,-557.129,0.000
1731796507.687,-1000.000,-132.324,-92.285,-1000.000,0.000
1731796507.691,589.355,-902.832,-69.336,141.113,0.000
1731796507.695,-784.180,271.973,-41.016,-829.590,0.000
1731796507.699,-11.230,-1000.000,-68.848,162.109,0.000
1731796507.703,-1000.000,-668.945,-103.516,-1000.000,0.000
1731796507.707,226.562,941.895,-79.590,-448.242,0.000
1731796507.710,-791.016,410.156,-47.363,-987.793,0.000
1731796507.714,716.797,-1000.000,-61.035,886.230,0.000
1731796507.718,-861.816,-944.824,-100.586,-767.090,0.000
1731796507.722,-625.977,666.992,-96.191,-958.496,0.000
1731796507.726,-982.910,970.215,-52.246,776.367,0.000
1731796507.730,937.500,-740.234,-48.340,-994.629,0.000
1731796507.734,-695.801,-1000.000,-86.914,-702.637,0.000
1731796507.738,-1000.000,494.141,-104.492,-1000.000,0.000
1731796507.742,662.598,-874.512,-69.336,598.145,0.000
1731796507.746,-853.516,-301.270,-47.852,-836.914,0.000
1731796507.750,0.000,-1000.000,0.000,-312.988,0.000
1731796507.753,0.000,-114.746,0.000,-1000.000,0.000
1731796507.757,0.000,-920.898,0.000,217.285,0.000
1731796507.761,0.000,9.766,0.000,-794.922,0.000
1731796507.765,0.000,-1000.000,0.000,455.078,0.000
1731796507.769,0.000,-648.438,0.000,-1000.000,0.000
1731796507.773,0.000,898.926,0.000,-624.023,0.000
1731796507.777,0.000,854.980,0.000,990.234,0.000
1731796507.781,0.000,-824.219,0.000,842.773,0.000
1731796507.785,0.000,-1000.000,0.000,-812.012,0.000
1731796507.789,0.000,678.223,0.000,-1000.000,0.000
1731796507.792,0.000,-988.281,0.000,703.125,0.000
1731796507.796,958.496,-628.906,-45.410,-989.746,0.000
1731796507.800,-700.684,-1000.000,-84.961,-662.109,0.000
1731796507.804,-1000.000,311.035,-98.633,-1000.000,0.000
1731796507.808,624.512,-891.113,-68.848,428.711,0.000
1731796507.812,-831.543,-272.949,-48.340,-869.141,0.000
1731796507.816,-409.668,-1000.000,-60.547,-269.043,0.000
1731796507.820,-1000.000,-538.086,-91.309,-1000.000,0.000
1731796507.824,483.887,944.336,-69.336,-412.598,0.000
1731796507.828,-771.973,574.707,-41.504,-993.164,0.000
1731796507.832,291.992,-982.910,-56.641,269.043,0.000
1731796507.835,-1000.000,-930.176,-87.891,-1000.000,0.000
1731796507.839,-134.766,731.445,-84.961,-921.387,0.000
1731796507.843,-841.309,949.707,-58.594,713.867,0.000
1731796507.847,783.691,-776.855,-62.988,736.816,0.000
1731796507.851,-827.148,-1000.000,-89.355,-919.922,0.000
1731796507.855,-854.492,607.910,-80.078,-1000.000,0.000
1731796507.859,881.348,-841.797,-44.922,465.332,0.000
1731796507.863,979.492,-265.137,-37.109,959.473,0.000
1731796507.867,-705.566,-1000.000,-67.383,-594.238,0.000
1731796507.871,-1000.000,233.398,-88.379,-1000.000,0.000
1731796507.875,640.137,-797.363,-54.688,-674.805,0.000
1731796507.878,-870.117,307.129,-35.645,571.289,0.000
1731796507.882,-466.797,-1000.000,-60.059,-430.664,0.000
1731796507.886,-1000.000,-600.586,-93.262,-1000.000,0.000
1731796507.890,416.504,954.590,-70.312,-987.305,0.000
1731796507.894,-794.434,950.684,-32.715,-236.328,0.000
1731796507.898,44.922,-707.031,-47.363,-384.277,0.000
1731796507.902,-1000.000,-1000.000,-86.426,-1000.000,0.000
1731796507.906,-270.508,731.934,-81.055,-959.961,0.000
1731796507.910,-914.551,-991.211,-42.969,-1000.000,0.000
1731796507.914,823.730,-706.055,-45.898,-1000.000,0.000
1731796507.917,-820.312,-1000.000,-84.473,-1000.000,0.000
1731796507.921,-888.672,658.203,-86.914,-1000.000,0.000
1731796507.925,850.098,991.211,-40.039,-1000.000,0.000
1731796507.929,987.793,-604.004,-39.062,-1000.000,0.000
1731796507.933,-711.914,-1000.000,-83.008,-1000.000,0.000
1731796507.937,-1000.000,-77.148,-98.145,-1000.000,0.000
1731796507.941,615.234,-902.832,-75.684,-1000.000,0.000
1731796507.945,-814.453,183.105,-66.895,-1000.000,0.000
1731796507.949,-324.219,-1000.000,-93.750,-1000.000,0.000
1731796507.953,-1000.000,-653.320,-115.234,-1000.000,0.000
1731796507.957,399.902,940.430,-94.238,-1000.000,0.000
1731796507.960,-778.809,403.809,-80.566,-1000.000,0.000
1731796507.964,575.195,-1000.000,-105.957,-1000.000,0.000
1731796507.968,-953.613,-896.484,-144.531,-920.410,0.000
1731796507.972,-337.402,605.469,-136.719,-1000.000,0.000
1731796507.976,-894.531,-816.895,-90.820,-624.512,0.000
1731796507.980,899.902,-353.516,-88.867,380.859,0.000
1731796507.984,-700.684,-1000.000,-131.836,-648.926,0.000
1731796507.988,-937.988,555.176,-153.809,-1000.000,0.000
1731796507.992,807.129,-765.137,-114.746,-724.609,0.000
1731796507.996,-965.332,93.750,-83.984,456.055,0.000
1731796508.000,-657.227,-1000.000,-125.977,-419.922,0.000
1731796508.003,-1000.000,213.379,-166.016,-1000.000,0.000
1731796508.007,596.680,-780.762,-135.254,-755.859,0.000
1731796508.011,-789.551,535.645,-107.422,567.383,0.000
1731796508.015,-113.281,-958.496,-128.418,-229.492,0.000
1731796508.019,-1000.000,-768.066,-166.504,-1000.000,0.000
1731796508.023,292.480,891.602,-141.602,-897.461,0.000
1731796508.027,-789.062,959.473,-102.051,612.305,0.000
1731796508.031,690.430,-723.633,-115.234,619.141,0.000
1731796508.035,-879.883,-1000.000,-150.879,-1000.000,0.000
1731796508.039,-539.551,691.895,-151.367,-1000.000,0.000
1731796508.043,-951.172,-953.613,-111.816,598.633,0.000
1731796508.046,925.293,-601.074,-104.980,948.242,0.000
1731796508.050,-692.383,-1000.000,-138.184,-648.926,0.000
1731796508.054,-1000.000,418.457,-159.180,-1000.000,0.000
1731796508.058,692.871,-852.051,-115.723,-69.336,0.000
1731796508.062,-880.859,-238.281,-83.008,896.484,0.000
1731796508.066,-540.039,-1000.000,-109.375,-490.234,0.000
1731796508.070,-1000.000,-240.723,-127.441,-1000.000,0.000
1731796508.074,559.570,-933.594,-99.121,-521.484,0.000
1731796508.078,-778.320,314.941,-63.965,946.289,0.000
1731796508.082,458.008,-1000.000,-71.289,548.828,0.000
1731796508.085,-970.703,-914.062,-108.398,-1000.000,0.000
1731796508.089,-16.113,714.844,-101.562,-771.484,0.000
1731796508.093,-819.824,805.176,-67.871,856.445,0.000
1731796508.097,858.398,-871.582,-66.406,968.750,0.000
1731796508.101,-702.637,-1000.000,-99.121,-722.168,0.000
1731796508.105,-866.211,613.770,-105.469,-1000.000,0.000
1731796508.109,890.137,-896.973,-73.730,667.480,0.000
1731796508.113,991.699,-479.980,-64.941,-921.387,0.000
1731796508.117,-689.453,-1000.000,-94.727,-593.750,0.000
1731796508.121,-1000.000,289.551,-108.887,-1000.000,0.000
1731796508.125,0.000,-814.453,-72.266,492.676,0.000
1731796508.128,0.000,188.477,-49.316,-796.875,0.000
1731796508.132,0.000,-1000.000,-63.965,106.934,0.000
1731796508.136,0.000,-551.758,-86.426,-1000.000,0.000
1731796508.140,0.000,974.121,-67.871,-223.633,0.000
1731796508.144,0.000,899.414,-38.086,-891.113,0.000
1731796508.148,0.000,-750.488,-53.223,798.340,0.000
1731796508.152,0.000,-1000.000,-93.262,-841.309,0.000
1731796508.156,0.000,713.867,-77.637,-844.238,0.000
1731796508.160,0.000,989.258,-39.062,882.812,0.000
1731796508.164,0.000,-726.074,-42.480,979.004,0.000
1731796508.167,0.000,-1000.000,-71.289,-706.055,0.000
1731796508.171,-1000.000,627.930,-71.777,-1000.000,0.000
1731796508.175,700.195,-999.512,-36.133,632.812,0.000
1731796508.179,-945.801,-608.887,-26.367,-851.562,0.000
1731796508.183,-659.668,-1000.000,-63.965,-430.176,0.000
1731796508.187,-1000.000,29.785,-84.473,-1000.000,0.000
1731796508.191,589.355,-888.184,-44.922,420.410,0.000
1731796508.195,-800.293,20.996,-15.137,-783.203,0.000
1731796508.199,-72.266,-1000.000,-33.203,346.191,0.000
1731796508.203,-1000.000,-696.289,-60.547,-1000.000,0.000
1731796508.207,113.770,884.277,-38.086,-369.141,0.000
1731796508.210,-806.152,794.922,-14.160,-921.387,0.000
1731796508.214,697.754,-880.859,-31.250,855.469,0.000
1731796508.218,-896.484,-995.117,-65.918,-772.949,0.000
1731796508.222,-732.910,689.941,-57.129,-945.312,0.000
1731796508.226,956.055,-984.375,-21.973,795.410,0.000
1731796508.230,957.520,-693.359,-26.367,-1000.000,0.000
1731796508.234,-698.730,-1000.000,-69.336,-712.402,0.000
1731796508.238,-1000.000,588.379,-85.938,-1000.000,0.000
1731796508.242,650.879,-931.152,-47.852,629.395,0.000
1731796508.246,-871.094,-473.633,-29.785,-845.703,0.000
1731796508.250,-527.344,-1000.000,-61.523,-383.301,0.000
1731796508.253,-1000.000,-24.414,-90.820,-1000.000,0.000
1731796508.257,555.176,-882.324,-56.641,331.543,0.000
1731796508.261,-769.531,170.898,-26.367,-781.250,0.000
1731796508.265,235.840,-1000.000,-46.875,400.391,0.000
1731796508.269,-1000.000,-694.336,-73.730,-1000.000,0.000
1731796508.273,120.605,892.578,-60.059,-448.730,0.000
1731796508.277,-800.781,857.910,-34.180,-954.102,0.000
1731796508.281,804.688,-829.102,-46.875,895.996,0.000
1731796508.285,-773.926,-1000.000,-85.449,-734.863,0.000
1731796508.289,-693.359,703.613,-75.684,-973.145,0.000
1731796508.292,-999.023,-991.699,-26.855,765.137,0.000
1731796508.296,945.801,-679.199,-25.391,-983.887,0.000
1731796508.300,-700.684,-1000.000,-60.547,-691.406,0.000
1731796508.304,-1000.000,422.363,-69.336,-1000.000,0.000
1731796508.308,639.160,-804.688,-34.668,602.051,0.000
1731796508.312,-816.406,132.812,-24.414,-839.844,0.000
1731796508.316,-381.348,-1000.000,-58.594,-297.852,0.000
1731796508.320,-1000.000,-300.293,-90.332,-1000.000,0.000
1731796508.324,524.414,-902.832,-61.523,155.762,0.000
1731796508.328,-773.438,283.203,-30.273,-808.105,0.000
1731796508.332,525.391,-1000.000,-49.316,599.609,0.000
1731796508.335,-937.012,-907.227,-92.285,-961.914,0.000
1731796508.339,-38.574,717.285,-78.613,-681.641,0.000
1731796508.343,-818.848,754.883,-32.227,960.938,0.000
1731796508.347,863.770,-914.062,-47.852,945.801,0.000
1731796508.351,-696.289,-975.586,-91.309,-709.961,0.000
1731796508.355,-866.211,618.652,-80.566,-1000.000,0.000
1731796508.359,883.301,-868.164,-41.016,680.664,0.000
1731796508.363,-990.234,-353.516,-38.086,-919.434,0.000
1731796508.367,-662.598,-1000.000,-64.941,-583.496,0.000
1731796508.371,-1000.000,160.156,-89.355,-1000.000,0.000
1731796508.375,606.934,-803.711,-54.688,498.047,0.000
1731796508.378,-805.664,423.340,-21.973,-809.082,0.000
1731796508.382,-193.359,-1000.000,-56.152,21.973,0.000
1731796508.386,-1000.000,-595.703,-94.727,-1000.000,0.000
1731796508.390,246.094,-994.629,-64.453,-321.777,0.000
1731796508.394,-785.156,810.059,-27.344,-919.434,0.000
1731796508.398,615.723,-839.355,-43.457,747.559,0.000
1731796508.402,-953.613,-982.910,-84.473,-893.066,0.000
1731796508.406,-649.902,730.469,-65.918,-918.945,0.000
1731796508.410,987.793,990.723,-19.043,790.039,0.000
1731796508.414,945.801,-732.422,-27.344,999.512,0.000
1731796508.418,-692.383,-1000.000,-66.406,-709.473,0.000
1731796508.421,-1000.000,650.879,-70.312,-1000.000,0.000
1731796508.425,685.059,-943.848,-22.949,648.438,0.000
1731796508.429,-942.383,-533.203,-5.859,-891.602,0.000
1731796508.433,-647.461,-1000.000,-42.480,-485.352,0.000
1731796508.437,-1000.000,160.156,-63.477,-1000.000,0.000
1731796508.441,555.176,-850.098,-32.227,326.172,0.000
1731796508.445,-797.363,123.047,-8.789,-785.156,0.000
1731796508.449,-69.824,-1000.000,-38.574,233.398,0.000
1731796508.453,-1000.000,-678.223,-73.730,-1000.000,0.000
1731796508.457,94.727,915.039,-46.387,-365.723,0.000
1731796508.460,-809.570,304.199,-25.879,-929.688,0.000
1731796508.464,704.102,-1000.000,-46.387,839.844,0.000
1731796508.468,-896.973,-928.711,-80.078,-809.082,0.000
1731796508.472,-695.312,648.438,-54.688,-903.320,0.000
1731796508.476,979.004,993.652,-1.465,833.496,0.000
1731796508.480,950.195,-698.730,-14.648,991.699,0.000
1731796508.484,-698.242,-1000.000,-61.035,-710.449,0.000
1731796508.488,-1000.000,469.238,-68.359,-1000.000,0.000
1731796508.492,649.902,-940.430,-29.785,631.836,0.000
1731796508.496,-856.934,-475.586,-15.137,-852.539,0.000
1731796508.500,-496.094,-1000.000,-48.340,-372.559,0.000
1731796508.503,-1000.000,-172.852,-75.684,-1000.000,0.000
1731796508.507,555.664,-930.664,-42.969,251.953,0.000
1731796508.511,-766.113,103.516,-17.090,-789.551,0.000
1731796508.515,249.023,-1000.000,-42.480,392.090,0.000
1731796508.519,-1000.000,-606.934,-69.336,-1000.000,0.000
1731796508.523,150.391,942.383,-50.781,-541.992,0.000
1731796508.527,-796.387,641.113,-21.484,-993.652,0.000
1731796508.531,809.082,-946.289,-30.762,895.996,0.000
1731796508.535,-760.254,-989.746,-71.289,-748.047,0.000
1731796508.539,-679.199,674.805,-71.777,-1000.000,0.000
1731796508.542,-991.699,977.051,-28.809,719.238,0.000
1731796508.546,944.336,-680.664,-24.902,-966.309,0.000
1731796508.550,-705.078,-1000.000,-75.684,-665.039,0.000
1731796508.554,-987.793,341.309,-89.844,-1000.000,0.000
1731796508.558,631.836,-954.102,-41.992,531.250,0.000
1731796508.562,-784.668,-438.965,-27.344,-804.688,0.000
1731796508.566,-221.680,-1000.000,-46.387,-86.426,0.000
1731796508.570,-971.191,-458.984,-68.359,-1000.000,0.000
1731796508.574,533.203,946.777,-51.758,35.645,0.000
1731796508.578,-759.277,110.352,-20.996,-813.477,0.000
1731796508.582,543.457,-1000.000,-44.922,567.383,0.000
1731796508.585,-884.277,-662.598,-84.473,-986.328,0.000
1731796508.589,104.980,902.344,-74.219,-700.684,0.000
1731796508.593,-787.598,677.246,-41.992,937.012,0.000
1731796508.597,851.074,-930.176,-39.551,950.195,0.000
1731796508.601,-700.684,-979.004,-62.988,-715.820,0.000
1731796508.605,-699.707,628.418,-61.523,-1000.000,0.000
1731796508.609,981.934,-904.785,-26.855,684.570,0.000
1731796508.613,-991.699,-457.031,-15.137,-922.852,0.000
1731796508.617,-602.051,-1000.000,-55.176,-587.402,0.000
1731796508.621,-1000.000,241.699,-83.008,-1000.000,0.000
1731796508.625,607.910,-845.215,-51.270,512.695,0.000
1731796508.628,-777.832,-48.340,-36.621,-816.895,0.000
1731796508.632,-180.664,-1000.000,-63.477,-116.211,0.000
1731796508.636,-993.652,-494.141,-90.820,-1000.000,0.000
1731796508.640,488.281,986.328,-61.035,-97.656,0.000
1731796508.644,-775.879,807.617,-20.508,-860.840,0.000
1731796508.648,614.746,-836.914,-37.109,673.828,0.000
1731796508.652,-888.672,-983.887,-77.148,-917.969,0.000
1731796508.656,-148.926,726.562,-60.059,-869.141,0.000
1731796508.660,-835.938,-1000.000,-19.531,830.078,0.000
1731796508.664,877.930,-714.355,-26.855,980.469,0.000
1731796508.667,-692.871,-1000.000,-75.195,-716.797,0.000
1731796508.671,-890.137,612.793,-84.473,-1000.000,0.000
1731796508.675,855.957,-923.340,-39.551,669.434,0.000
1731796508.679,-969.238,-493.652,-19.531,-948.242,0.000
1731796508.683,-643.066,-1000.000,-47.852,-601.562,0.000
1731796508.687,-1000.000,129.395,-68.848,-1000.000,0.000
1731796508.691,586.914,-842.285,-33.203,370.117,0.000
1731796508.695,-778.320,190.918,-17.578,-803.223,0.000
1731796508.699,-11.719,-1000.000,-40.039,81.543,0.000
1731796508.703,-1000.000,-721.680,-66.406,-1000.000,0.000
1731796508.707,279.785,911.133,-41.504,-362.793,0.000
1731796508.710,-779.785,635.742,-12.207,-932.617,0.000
1731796508.714,675.293,-985.352,-45.410,756.836,0.000
1731796508.718,-893.066,-959.961,-84.473,-879.395,0.000
1731796508.722,-563.965,691.406,-65.918,-932.129,0.000
1731796508.726,-963.867,-995.605,-30.273,774.414,0.000
1731796508.730,929.199,-725.098,-37.598,-997.559,0.000
1731796508.734,-691.406,-1000.000,-68.359,-709.961,0.000
1731796508.738,-1000.000,644.531,-75.684,-1000.000,0.000
1731796508.742,688.477,-934.570,-40.039,647.949,0.000
1731796508.746,-895.996,-520.996,-20.020,-891.113,0.000
1731796508.750,-568.848,-1000.000,-58.105,-476.074,0.000
1731796508.753,-1000.000,263.184,-90.820,-1000.000,0.000
1731796508.757,574.219,-928.711,-60.547,314.453,0.000
1731796508.761,-784.668,-323.242,-35.156,-798.340,0.000
1731796508.765,71.289,-1000.000,-55.176,182.129,0.000
1731796508.769,-1000.000,-649.414,-88.867,-1000.000,0.000
1731796508.773,78.613,864.746,-68.848,-532.227,0.000
1731796508.777,-813.477,839.844,-30.762,991.699,0.000
1731796508.781,758.789,-833.496,-50.293,868.164,0.000
1731796508.785,-833.984,-1000.000,-90.820,-786.133,0.000
1731796508.789,-784.668,673.340,-83.984,-1000.000,0.000
1731796508.793,937.500,-979.492,-41.504,712.891,0.000
1731796508.796,964.355,-660.156,-26.367,-987.305,0.000
1731796508.800,-701.660,-1000.000,-52.734,-705.078,0.000
1731796508.804,-1000.000,506.348,-71.289,-1000.000,0.000
1731796508.808,637.207,-954.102,-40.039,603.516,0.000
1731796508.812,-854.980,-519.531,-12.695,-892.090,0.000
1731796508.816,-474.121,-1000.000,-40.527,-395.020,0.000
1731796508.820,-1000.000,-127.930,-79.590,-1000.000,0.000
1731796508.824,500.977,-906.250,-56.641,-42.480,0.000
1731796508.828,-773.926,287.109,-29.785,-862.793,0.000
1731796508.832,282.227,-1000.000,-45.410,311.523,0.000
1731796508.835,-1000.000,-862.305,-79.590,-1000.000,0.000
1731796508.839,-88.379,736.328,-72.266,-853.027,0.000
1731796508.843,-836.426,-991.699,-40.039,794.434,0.000
1731796508.847,803.223,-716.797,-40.527,864.258,0.000
1731796508.851,-803.711,-1000.000,-80.566,-857.422,0.000
1731796508.855,-829.590,649.414,-82.520,-1000.000,0.000
1731796508.859,909.668,999.023,-33.203,676.270,0.000
1731796508.863,972.656,-518.066,-32.715,993.652,0.000
1731796508.867,-704.102,-1000.000,-76.172,-657.227,0.000
1731796508.871,-1000.000,304.199,-91.309,-1000.000,0.000
1731796508.875,632.324,-805.176,-57.129,333.984,0.000
1731796508.878,-849.609,134.766,-34.668,-964.355,0.000
1731796508.882,-453.125,-1000.000,-58.105,-455.566,0.000
1731796508.886,-1000.000,-489.746,-97.168,-1000.000,0.000
1731796508.890,470.703,-996.094,-76.172,-519.043,0.000
1731796508.894,-770.996,860.352,-38.086,931.641,0.000
1731796508.898,319.336,-790.527,-48.828,200.195,0.000
1731796508.902,-1000.000,-975.586,-86.426,-1000.000,0.000
1731796508.906,-112.793,751.953,-68.848,-856.934,0.000
1731796508.910,-856.445,-997.070,-31.738,731.445,0.000
1731796508.914,864.746,-730.957,-41.016,895.020,0.000
1731796508.917,-724.121,-997.070,-77.637,-835.449,0.000
1731796508.921,-877.441,735.352,-80.566,-1000.000,0.000
1731796508.925,881.836,-998.535,-44.922,657.715,0.000
1731796508.929,981.934,-611.328,-43.945,-994.629,0.000
1731796508.933,-711.426,-1000.000,-81.055,-670.898,0.000
1731796508.937,-1000.000,205.566,-104.004,-1000.000,0.000
1731796508.941,603.516,-879.883,-59.570,394.043,0.000
1731796508.945,-796.875,-112.793,-26.855,-874.023,0.000
1731796508.949,-218.750,-1000.000,-51.758,-256.836,0.000
1731796508.953,-1000.000,-721.191,-89.844,-1000.000,0.000
1731796508.957,374.512,840.332,-59.570,-571.777,0.000
1731796508.960,-775.879,880.859,-19.043,945.801,0.000
1731796508.964,603.027,-828.613,-39.062,579.590,0.000
1731796508.968,-937.500,-997.559,-78.125,-1000.000,0.000
1731796508.972,-363.281,717.285,-72.754,-887.695,0.000
1731796508.976,-900.879,993.164,-33.203,768.555,0.000
1731796508.980,905.273,-737.793,-38.574,959.961,0.000
1731796508.984,-694.336,-1000.000,-76.172,-761.719,0.000
1731796508.988,-950.684,650.879,-81.543,-1000.000,0.000
1731796508.992,771.973,-925.293,-49.805,662.109,0.000
1731796508.996,-916.992,-477.051,-33.691,-937.012,0.000
1731796509.000,-580.078,-1000.000,-71.289,-549.805,0.000
1731796509.003,-1000.000,97.656,-94.238,-1000.000,0.000
1731796509.007,599.609,-844.727,-52.246,300.781,0.000
1731796509.011,-795.898,259.766,-19.043,-849.609,0.000
1731796509.015,-111.328,-1000.000,-46.387,-150.879,0.000
1731796509.019,-1000.000,-658.691,-88.867,-1000.000,0.000
1731796509.023,194.824,905.273,-59.082,-495.117,0.000
1731796509.027,-793.457,958.984,-14.648,995.605,0.000
1731796509.031,680.664,-709.961,-33.691,679.688,0.000
1731796509.035,-899.902,-1000.000,-83.008,-947.266,0.000
1731796509.039,-738.281,700.195,-68.359,-969.727,0.000
1731796509.042,952.148,-988.770,-23.926,703.613,0.000
1731796509.046,958.008,-676.270,-31.738,999.512,0.000
1731796509.050,-696.777,-1000.000,-77.637,-714.844,0.000
1731796509.054,-1000.000,490.234,-80.078,-1000.000,0.000
1731796509.058,652.832,-886.719,-24.414,608.887,0.000
1731796509.062,-895.508,-357.910,-9.766,-943.359,0.000
1731796509.066,-555.176,-1000.000,-47.363,-528.320,0.000
1731796509.070,-1000.000,-132.812,-83.008,-1000.000,0.000
1731796509.074,489.746,-911.133,-51.270,59.570,0.000
1731796509.078,-780.273,103.516,-23.438,-840.332,0.000
1731796509.082,257.812,-1000.000,-52.734,334.473,0.000
1731796509.085,-1000.000,-805.176,-83.984,-1000.000,0.000
1731796509.089,-139.648,773.438,-70.801,-724.609,0.000
1731796509.093,-847.168,953.125,-32.227,916.992,0.000
1731796509.097,788.574,-772.461,-37.109,835.449,0.000
1731796509.101,-823.730,-1000.000,-77.148,-854.004,0.000
1731796509.105,-860.840,639.160,-56.152,-1000.000,0.000
1731796509.109,876.465,-878.906,-14.648,683.594,0.000
1731796509.113,980.957,-430.176,-23.438,-988.281,0.000
1731796509.117,-708.984,-1000.000,-59.082,-694.824,0.000
1731796509.121,-1000.000,291.016,-65.430,-1000.000,0.000
1731796509.125,618.164,-797.852,-27.344,514.160,0.000
1731796509.128,-819.336,367.676,-7.324,-845.703,0.000
1731796509.132,-363.281,-1000.000,-34.668,-268.066,0.000
1731796509.136,-1000.000,-559.570,-65.430,-1000.000,0.000
1731796509.140,440.918,-969.238,-33.203,-62.012,0.000
1731796509.144,-770.508,579.102,-6.348,-853.516,0.000
1731796509.148,477.539,-977.539,-23.438,454.590,0.000
1731796509.152,-994.629,-940.918,-44.922,-1000.000,0.000
1731796509.156,-202.148,717.285,-29.297,-806.641,0.000
1731796509.160,-858.398,988.770,-9.277,860.840,0.000
1731796509.164,872.559,-737.305,-16.113,912.598,0.000
1731796509.168,-719.238,-1000.000,-52.734,-780.762,0.000
1731796509.171,-760.254,645.020,-51.758,-833.008,0.000
1731796509.175,921.875,-940.430,-6.836,758.789,0.000
1731796509.179,984.375,-494.629,-4.395,989.258,0.000
1731796509.183,-668.457,-1000.000,-44.434,-646.973,0.000
1731796509.187,-1000.000,-5.859,-72.754,-1000.000,0.000
1731796509.191,598.633,-854.492,-47.852,467.285,0.000
1731796509.195,-786.621,487.305,-26.367,-846.680,0.000
1731796509.199,-202.637,-1000.000,-54.199,-251.465,0.000
1731796509.203,-1000.000,-748.047,-82.031,-1000.000,0.000
1731796509.207,436.035,938.965,-54.688,-125.977,0.000
1731796509.210,-772.949,522.461,-30.273,-874.023,0.000
1731796509.214,616.211,-1000.000,-62.500,582.520,0.000
1731796509.218,-892.090,-941.406,-100.586,-989.746,0.000
1731796509.222,-160.156,709.473,-76.172,-788.086,0.000
1731796509.226,-838.379,914.062,-34.668,877.441,0.000
1731796509.230,879.395,-802.734,-37.109,964.844,0.000
1731796509.234,-697.266,-1000.000,-66.406,-717.773,0.000
1731796509.238,-873.535,582.520,-58.594,-1000.000,0.000
1731796509.242,846.680,-914.062,-19.531,667.969,0.000
1731796509.246,-924.316,-437.500,-16.113,-946.289,0.000
1731796509.250,-556.152,-1000.000,-51.758,-566.406,0.000
1731796509.253,-1000.000,-31.738,-78.125,-1000.000,0.000
1731796509.257,580.078,-861.816,-34.668,288.086,0.000
1731796509.261,-766.113,334.473,-10.742,-835.938,0.000
1731796509.265,20.996,-1000.000,-41.504,-82.520,0.000
1731796509.269,-1000.000,-592.285,-76.660,-1000.000,0.000
1731796509.273,344.727,992.676,-57.617,-429.688,0.000
1731796509.277,-779.297,799.805,-22.461,-967.773,0.000
1731796509.281,690.918,-839.844,-33.203,665.527,0.000
1731796509.285,-864.258,-1000.000,-70.801,-949.219,0.000
1731796509.289,-446.777,678.711,-61.035,-947.266,0.000
1731796509.292,-915.527,-978.027,-18.555,723.633,0.000
1731796509.296,914.062,-665.527,-16.113,-987.793,0.000
1731796509.300,-700.684,-1000.000,-55.664,-713.379,0.000
1731796509.304,-947.754,502.441,-74.707,-1000.000,0.000
1731796509.308,736.816,-907.227,-38.574,638.184,0.000
1731796509.312,-853.027,-376.953,-21.973,-869.141,0.000
1731796509.316,-448.730,-1000.000,-46.875,-409.668,0.000
1731796509.320,-1000.000,-338.867,-69.336,-1000.000,0.000
1731796509.324,562.500,-966.797,-41.016,257.812,0.000
1731796509.328,-764.160,289.551,-8.301,-795.898,0.000
1731796509.332,315.430,-1000.000,-33.691,346.680,0.000
1731796509.335,-998.535,-816.406,-71.289,-1000.000,0.000
1731796509.339,138.184,793.945,-40.527,-558.594,0.000
1731796509.343,-793.457,879.395,0.000,997.070,0.000
1731796509.347,807.129,-817.871,-20.996,881.836,0.000
1731796509.351,-759.277,-999.023,-64.941,-773.438,0.000
1731796509.355,-744.141,628.418,-54.688,-993.652,0.000
1731796509.359,974.121,-857.910,-11.230,724.121,0.000
1731796509.363,954.102,-359.375,-1.465,-969.238,0.000
1731796509.367,-700.684,-1000.000,-35.156,-669.434,0.000
1731796509.371,-1000.000,306.641,-49.805,-1000.000,0.000
1731796509.375,619.629,-818.359,-1.953,572.754,0.000
1731796509.378,-813.477,-49.805,19.043,-845.703,0.000
1731796509.382,-368.652,-1000.000,-28.809,-298.828,0.000
1731796509.386,-1000.000,-317.871,-69.824,-1000.000,0.000
1731796509.390,496.582,-924.316,-39.062,65.430,0.000
1731796509.394,-770.996,655.273,-4.883,-825.195,0.000
1731796509.398,509.766,-933.594,-28.809,543.945,0.000
1731796509.402,-962.891,-919.922,-62.012,-997.070,0.000
1731796509.406,-107.910,763.184,-43.945,-737.793,0.000
1731796509.410,-838.379,994.629,-8.789,910.156,0.000
1731796509.414,878.418,-714.355,-11.719,963.379,0.000
1731796509.417,-697.266,-1000.000,-46.875,-707.520,0.000
1731796509.421,-860.840,634.277,-57.129,-1000.000,0.000
1731796509.425,882.324,-926.758,-23.438,670.898,0.000
1731796509.429,-977.539,-498.535,-8.789,-926.758,0.000
1731796509.433,-643.066,-1000.000,-36.621,-604.980,0.000
1731796509.437,-1000.000,136.230,-58.105,-1000.000,0.000
1731796509.441,585.449,-846.191,-31.250,505.859,0.000
1731796509.445,-770.020,174.805,-9.277,-793.945,0.000
1731796509.449,-55.664,-1000.000,-41.504,17.090,0.000
1731796509.453,-1000.000,-622.070,-78.125,-1000.000,0.000
1731796509.457,408.203,972.168,-44.434,-30.762,0.000
1731796509.460,-773.438,719.238,-8.301,-836.426,0.000
1731796509.464,661.133,-936.523,-27.344,716.309,0.000
1731796509.468,-860.352,-942.383,-60.547,-877.930,0.000
1731796509.472,-224.121,733.887,-44.434,-825.195,0.000
1731796509.476,-849.121,-986.328,-5.859,881.348,0.000
1731796509.480,886.230,-704.590,-17.578,977.051,0.000
1731796509.484,-698.730,-1000.000,-49.316,-704.102,0.000
1731796509.488,-887.207,656.738,-47.852,-1000.000,0.000
1731796509.492,832.520,-916.016,-10.254,666.504,0.000
1731796509.496,-918.457,-533.203,-7.324,-926.758,0.000
1731796509.500,-553.223,-1000.000,-51.758,-575.195,0.000
1731796509.503,-1000.000,373.535,-66.406,-1000.000,0.000
1731796509.507,578.613,-825.195,-30.273,428.223,0.000
1731796509.511,-766.113,184.570,-12.695,-819.336,0.000
1731796509.515,58.105,-1000.000,-41.016,-29.785,0.000
1731796509.519,-1000.000,-744.141,-73.730,-1000.000,0.000
1731796509.523,307.617,897.949,-46.875,-375.000,0.000
1731796509.527,-774.902,714.355,-9.766,-938.965,0.000
1731796509.531,691.895,-942.871,-28.320,671.387,0.000
1731796509.535,-863.281,-986.816,-66.406,-940.430,0.000
1731796509.539,-433.594,669.922,-51.270,-929.688,0.000
1731796509.543,-911.133,-971.191,-12.207,750.977,0.000
1731796509.546,911.621,-657.227,-12.207,-996.094,0.000
1731796509.550,-698.242,-1000.000,-47.852,-710.449,0.000
1731796509.554,-953.613,497.559,-50.781,-1000.000,0.000
1731796509.558,739.258,-883.789,-9.277,643.066,0.000
1731796509.562,-865.723,-355.469,-0.488,-913.574,0.000
1731796509.566,-481.445,-1000.000,-32.227,-483.398,0.000
1731796509.570,-1000.000,-118.652,-53.711,-1000.000,0.000
1731796509.574,560.059,-900.879,-19.043,157.227,0.000
1731796509.578,-771.973,365.234,13.672,-819.824,0.000
1731796509.582,432.129,-1000.000,-8.301,344.727,0.000
1731796509.585,-967.285,-929.199,-55.664,-1000.000,0.000
1731796509.589,40.527,703.613,-40.039,-692.871,0.000
1731796509.593,-793.945,917.969,0.488,943.359,0.000
1731796509.597,790.527,-790.039,-10.742,807.617,0.000
1731796509.601,-781.738,-1000.000,-47.852,-866.699,0.000
1731796509.605,-836.426,627.930,-43.457,-1000.000,0.000
1731796509.609,908.691,-902.344,-3.418,688.965,0.000
1731796509.613,973.633,-486.816,3.418,978.027,0.000
1731796509.617,-703.613,-1000.000,-29.297,-677.734,0.000
1731796509.621,-1000.000,296.875,-54.199,-1000.000,0.000
1731796509.625,637.207,-808.105,-30.762,362.793,0.000
1731796509.628,-862.793,22.949,-11.230,-978.516,0.000
1731796509.632,-468.750,-1000.000,-39.062,-505.859,0.000
1731796509.636,-1000.000,-225.098,-70.312,-1000.000,0.000
1731796509.640,444.336,-904.297,-42.480,-347.168,0.000
1731796509.644,-780.273,780.762,-12.695,986.328,0.000
1731796509.648,238.770,-808.105,-35.156,6.348,0.000
1731796509.652,-1000.000,-985.840,-74.219,-1000.000,0.000
1731796509.656,-241.699,734.375,-51.270,-877.441,0.000
1731796509.660,-880.371,-994.629,-20.508,702.148,0.000
1731796509.664,809.082,-710.938,-35.156,769.043,0.000
1731796509.667,-814.453,-1000.000,-72.266,-954.590,0.000
1731796509.671,-903.320,664.062,-66.895,-1000.000,0.000
1731796509.675,836.426,-988.281,-20.508,665.527,0.000
1731796509.679,990.723,-603.516,-8.301,994.141,0.000
1731796509.683,-710.938,-1000.000,-39.062,-654.785,0.000
1731796509.687,-1000.000,83.496,-71.289,-1000.000,0.000
1731796509.691,626.953,-850.586,-41.504,316.406,0.000
1731796509.695,-840.820,302.246,-12.695,-956.543,0.000
1731796509.699,-375.488,-1000.000,-39.551,-430.176,0.000
1731796509.703,-1000.000,-650.879,-79.102,-1000.000,0.000
1731796509.707,339.355,958.008,-52.734,-706.055,0.000
1731796509.710,-777.832,825.684,-11.230,768.555,0.000
1731796509.714,316.895,-844.238,-23.926,58.105,0.000
1731796509.718,-1000.000,-994.629,-60.059,-1000.000,0.000
1731796509.722,-412.109,709.473,-45.410,-915.527,0.000
1731796509.726,-941.895,-988.770,-9.277,646.484,0.000
1731796509.730,877.930,-710.449,-21.973,773.438,0.000
1731796509.734,-759.766,-1000.000,-59.082,-916.992,0.000
1731796509.738,-954.102,646.484,-54.688,-1000.000,0.000
1731796509.742,792.969,-953.613,-6.348,499.023,0.000
1731796509.746,-999.023,-522.461,-0.977,961.426,0.000
1731796509.750,-714.355,-1000.000,-45.410,-589.355,0.000
1731796509.753,-1000.000,-9.277,-68.848,-1000.000,0.000
1731796509.757,622.070,-852.051,-33.203,-548.828,0.000
1731796509.761,-830.566,436.523,0.488,701.172,0.000
1731796509.765,-327.637,-1000.000,-22.461,-373.047,0.000
1731796509.769,-1000.000,-639.160,-59.570,-1000.000,0.000
1731796509.773,278.809,959.961,-39.062,-823.242,0.000
1731796509.777,-787.109,889.648,-1.953,673.828,0.000
1731796509.781,601.562,-771.484,-10.742,292.480,0.000
1731796509.785,-962.402,-1000.000,-52.734,-1000.000,0.000
1731796509.789,-554.688,695.801,-42.480,-958.496,0.000
1731796509.792,-973.145,-979.492,-0.488,629.395,0.000
1731796509.796,932.129,-654.297,-5.371,830.566,0.000
1731796509.800,-692.871,-1000.000,-46.387,-807.617,0.000
1731796509.804,-1000.000,453.125,-56.641,-1000.000,0.000
1731796509.808,708.496,-863.281,-18.555,163.574,0.000
1731796509.812,-925.293,-288.574,1.953,930.176,0.000
1731796509.816,-623.535,-1000.000,-26.855,-562.500,0.000
1731796509.820,-1000.000,-187.012,-55.176,-1000.000,0.000
1731796509.824,585.938,-908.203,-18.066,-468.262,0.000
1731796509.828,-783.691,370.117,8.789,882.324,0.000
1731796509.832,62.012,-1000.000,-15.625,-135.742,0.000
1731796509.835,-1000.000,-870.117,-56.641,-1000.000,0.000
1731796509.839,137.207,758.789,-30.762,-830.078,0.000
1731796509.843,-793.457,975.098,11.230,725.586,0.000
1731796509.847,719.238,-746.582,-3.418,639.648,0.000
1731796509.851,-870.117,-1000.000,-43.457,-1000.000,0.000
1731796509.855,-708.984,649.902,-36.621,-973.145,0.000
1731796509.859,977.051,-901.367,3.418,668.457,0.000
1731796509.863,951.172,-491.699,5.859,985.352,0.000
1731796509.867,-698.242,-1000.000,-25.879,-673.828,0.000
1731796509.871,-1000.000,320.801,-36.621,-1000.000,0.000
1731796509.875,638.672,-799.805,-3.418,352.051,0.000
1731796509.878,-845.215,222.656,13.672,-960.938,0.000
1731796509.882,-454.102,-1000.000,-15.625,-453.125,0.000
1731796509.886,-1000.000,-530.762,-46.875,-1000.000,0.000
1731796509.890,514.160,-977.539,-18.066,-503.906,0.000
1731796509.894,-776.855,713.867,13.184,922.852,0.000
1731796509.898,279.785,-918.945,-8.301,85.938,0.000
1731796509.902,-1000.000,-937.500,-48.828,-1000.000,0.000
1731796509.906,-128.418,755.371,-38.574,-869.141,0.000
1731796509.910,-860.840,986.328,0.977,695.312,0.000
1731796509.914,853.027,-730.469,-3.418,897.461,0.000
1731796509.917,-742.676,-1000.000,-50.293,-845.215,0.000
1731796509.921,-885.742,643.555,-47.852,-1000.000,0.000
1731796509.925,870.605,-930.664,-4.395,666.016,0.000
1731796509.929,983.887,-509.277,5.371,-998.535,0.000
1731796509.933,-710.449,-1000.000,-23.438,-670.410,0.000
1731796509.937,-1000.000,152.832,-44.922,-1000.000,0.000
1731796509.941,616.211,-847.656,-13.184,383.789,0.000
1731796509.945,-817.383,138.672,11.230,-870.117,0.000
1731796509.949,-324.219,-1000.000,-17.090,-314.453,0.000
1731796509.953,-1000.000,-604.004,-47.852,-1000.000,0.000
1731796509.957,361.816,978.516,-18.555,-246.094,0.000
1731796509.960,-781.738,630.371,-0.488,-915.527,0.000
1731796509.964,591.797,-958.984,-18.066,570.312,0.000
1731796509.968,-954.102,-986.328,-41.504,-1000.000,0.000
1731796509.972,-407.227,699.219,-29.297,-852.539,0.000
1731796509.976,-917.480,881.836,7.324,815.918,0.000
1731796509.980,911.621,-832.520,2.441,975.586,0.000
1731796509.984,-690.918,-1000.000,-36.621,-724.609,0.000
1731796509.988,-978.027,567.871,-38.086,-1000.000,0.000
1731796509.992,756.836,-888.672,0.488,655.273,0.000
1731796509.996,-942.383,-416.992,10.254,-945.801,0.000
1731796510.000,-640.137,-1000.000,-26.367,-594.727,0.000
1731796510.003,-1000.000,139.160,-49.805,-1000.000,0.000
1731796510.007,583.008,-820.801,-11.230,344.238,0.000
1731796510.011,-777.344,337.891,17.090,-793.945,0.000
1731796510.015,63.477,-1000.000,-6.836,184.570,0.000
1731796510.019,-1000.000,-569.824,-48.340,-1000.000,0.000
1731796510.023,218.262,-982.422,-21.484,-361.816,0.000
1731796510.027,-782.715,375.977,7.324,-920.898,0.000
1731796510.031,704.590,-1000.000,-26.367,768.555,0.000
1731796510.035,-872.070,-937.012,-57.617,-861.816,0.000
1731796510.039,-618.652,649.414,-42.969,-942.383,0.000
1731796510.042,-981.934,-965.820,-13.184,742.188,0.000
1731796510.046,938.965,-637.695,-15.625,-938.965,0.000
1731796510.050,-704.590,-1000.000,-52.734,-625.488,0.000
1731796510.054,-979.492,465.332,-62.988,-1000.000,0.000
1731796510.058,687.012,-924.805,-19.531,596.191,0.000
1731796510.062,-835.938,-430.176,-7.812,-787.109,0.000
1731796510.066,-425.293,-1000.000,-44.434,-124.512,0.000
1731796510.070,-1000.000,-315.430,-65.430,-1000.000,0.000
1731796510.074,559.570,-956.055,-20.996,337.402,0.000
1731796510.078,-765.625,608.398,6.836,-774.902,0.000
1731796510.082,368.652,-978.516,-18.555,583.496,0.000
1731796510.085,-983.398,-879.395,-51.758,-953.125,0.000
1731796510.089,100.586,827.148,-31.738,-513.672,0.000
1731796510.093,-798.828,738.281,-1.953,-958.984,0.000
1731796510.097,826.660,-910.156,-18.066,919.922,0.000
1731796510.101,-739.258,-985.352,-51.758,-707.031,0.000
1731796510.105,-746.094,637.695,-43.457,-984.375,0.000
1731796510.109,975.586,-907.227,6.348,734.863,0.000
1731796510.113,954.102,-486.328,7.324,-934.570,0.000
1731796510.117,-701.172,-1000.000,-46.875,-613.770,0.000
1731796510.121,-1000.000,300.293,-66.895,-1000.000,0.000
1731796510.125,620.605,-835.938,-17.090,574.219,0.000
1731796510.128,-811.523,-92.285,14.648,-808.594,0.000
1731796510.132,-362.305,-1000.000,-16.113,-131.348,0.000
1731796510.136,-1000.000,-413.086,-42.480,-1000.000,0.000
1731796510.140,496.094,-978.516,-13.184,83.008,0.000
1731796510.144,-774.414,756.348,11.230,-817.383,0.000
1731796510.148,526.367,-874.023,-12.207,668.457,0.000
1731796510.152,-956.543,-976.074,-44.434,-918.945,0.000
1731796510.156,-142.578,726.074,-27.832,-735.352,0.000
1731796510.160,-843.750,997.559,4.395,937.500,0.000
1731796510.164,875.977,-725.098,-2.441,958.496,0.000
1731796510.167,-700.684,-1000.000,-39.551,-702.148,0.000
1731796510.171,-886.719,648.926,-38.574,-1000.000,0.000
1731796510.175,867.676,-937.500,8.301,669.922,0.000
1731796510.179,-994.629,-536.133,15.625,-920.898,0.000
1731796510.183,-678.711,-1000.000,-28.809,-605.957,0.000
1731796510.187,-1000.000,280.273,-52.246,-1000.000,0.000
1731796510.191,600.098,-895.020,-14.160,527.344,0.000
1731796510.195,-791.992,-239.258,6.836,-789.551,0.000
1731796510.199,-178.711,-1000.000,-23.438,94.727,0.000
1731796510.203,-1000.000,-577.637,-51.270,-1000.000,0.000
1731796510.207,354.004,955.566,-25.391,-49.805,0.000
1731796510.210,-777.344,507.324,4.883,-841.797,0.000
1731796510.214,617.676,-1000.000,-10.254,768.555,0.000
1731796510.218,-932.617,-930.664,-43.457,-835.938,0.000
1731796510.222,-424.805,690.430,-34.668,-835.938,0.000
1731796510.226,-919.434,-984.375,9.277,888.672,0.000
1731796510.230,913.574,-720.215,7.324,977.539,0.000
1731796510.234,-695.801,-1000.000,-31.738,-706.543,0.000
1731796510.238,-962.402,625.977,-29.785,-1000.000,0.000
1731796510.242,763.672,-854.004,5.371,632.812,0.000
1731796510.246,-925.293,-367.188,6.836,-842.773,0.000
1731796510.250,-602.051,-1000.000,-30.762,-426.270,0.000
1731796510.253,-1000.000,361.816,-38.086,-1000.000,0.000
1731796510.257,588.379,-825.195,-0.488,463.379,0.000
1731796510.261,-784.180,58.105,23.438,-780.273,0.000
1731796510.265,12.695,-1000.000,-2.930,341.797,0.000
1731796510.269,-1000.000,-626.465,-46.875,-1000.000,0.000
1731796510.273,185.059,927.246,-21.973,-275.879,0.000
1731796510.277,-788.574,877.441,8.301,-895.020,0.000
1731796510.281,702.637,-795.898,-12.695,855.957,0.000
